{
    "visuals": [
        {
            "id": "periodic-sine-wave",
            "type": "plotly",
            "title": "A Simple Periodic Signal: The Sine Wave",
            "description": "A continuous sine wave repeating every T₀ seconds. Notice how every point x(t) is identical to x(t + T₀) — this is the defining property of periodicity.",
            "traces": [
                {
                    "mode": "lines",
                    "name": "sin(ω₀t)",
                    "line": {
                        "color": "#4f8cff",
                        "width": 2.5
                    },
                    "x": [
                        0,
                        0.0314,
                        0.0628,
                        0.0942,
                        0.1257,
                        0.1571,
                        0.1885,
                        0.2199,
                        0.2513,
                        0.2827,
                        0.3142,
                        0.3456,
                        0.377,
                        0.4084,
                        0.4398,
                        0.4712,
                        0.5027,
                        0.5341,
                        0.5655,
                        0.5969,
                        0.6283,
                        0.6597,
                        0.6912,
                        0.7226,
                        0.754,
                        0.7854,
                        0.8168,
                        0.8482,
                        0.8796,
                        0.9111,
                        0.9425,
                        0.9739,
                        1.0053,
                        1.0367,
                        1.0681,
                        1.0996,
                        1.131,
                        1.1624,
                        1.1938,
                        1.2252,
                        1.2566,
                        1.2881,
                        1.3195,
                        1.3509,
                        1.3823,
                        1.4137,
                        1.4451,
                        1.4765,
                        1.508,
                        1.5394,
                        1.5708,
                        1.6022,
                        1.6336,
                        1.665,
                        1.6965,
                        1.7279,
                        1.7593,
                        1.7907,
                        1.8221,
                        1.8535,
                        1.885,
                        1.9164,
                        1.9478,
                        1.9792,
                        2.0106,
                        2.042,
                        2.0735,
                        2.1049,
                        2.1363,
                        2.1677,
                        2.1991,
                        2.2305,
                        2.2619,
                        2.2934,
                        2.3248,
                        2.3562,
                        2.3876,
                        2.419,
                        2.4504,
                        2.4819,
                        2.5133,
                        2.5447,
                        2.5761,
                        2.6075,
                        2.6389,
                        2.6704,
                        2.7018,
                        2.7332,
                        2.7646,
                        2.796,
                        2.8274,
                        2.8588,
                        2.8903,
                        2.9217,
                        2.9531,
                        2.9845,
                        3.0159,
                        3.0473,
                        3.0788,
                        3.1102,
                        3.1416,
                        3.173,
                        3.2044,
                        3.2358,
                        3.2673,
                        3.2987,
                        3.3301,
                        3.3615,
                        3.3929,
                        3.4243,
                        3.4558,
                        3.4872,
                        3.5186,
                        3.55,
                        3.5814,
                        3.6128,
                        3.6442,
                        3.6757,
                        3.7071,
                        3.7385,
                        3.7699,
                        3.8013,
                        3.8327,
                        3.8642,
                        3.8956,
                        3.927,
                        3.9584,
                        3.9898,
                        4.0212,
                        4.0527,
                        4.0841,
                        4.1155,
                        4.1469,
                        4.1783,
                        4.2097,
                        4.2412,
                        4.2726,
                        4.304,
                        4.3354,
                        4.3668,
                        4.3982,
                        4.4296,
                        4.4611,
                        4.4925,
                        4.5239,
                        4.5553,
                        4.5867,
                        4.6181,
                        4.6496,
                        4.681,
                        4.7124,
                        4.7438,
                        4.7752,
                        4.8066,
                        4.8381,
                        4.8695,
                        4.9009,
                        4.9323,
                        4.9637,
                        4.9951,
                        5.0265,
                        5.058,
                        5.0894,
                        5.1208,
                        5.1522,
                        5.1836,
                        5.215,
                        5.2465,
                        5.2779,
                        5.3093,
                        5.3407,
                        5.3721,
                        5.4035,
                        5.435,
                        5.4664,
                        5.4978,
                        5.5292,
                        5.5606,
                        5.592,
                        5.6235,
                        5.6549,
                        5.6863,
                        5.7177,
                        5.7491,
                        5.7805,
                        5.8119,
                        5.8434,
                        5.8748,
                        5.9062,
                        5.9376,
                        5.969,
                        6.0004,
                        6.0319,
                        6.0633,
                        6.0947,
                        6.1261,
                        6.1575,
                        6.1889,
                        6.2204,
                        6.2518,
                        6.2832,
                        6.3146,
                        6.346,
                        6.3774,
                        6.4088,
                        6.4403,
                        6.4717,
                        6.5031,
                        6.5345,
                        6.5659,
                        6.5973,
                        6.6288,
                        6.6602,
                        6.6916,
                        6.723,
                        6.7544,
                        6.7858,
                        6.8173,
                        6.8487,
                        6.8801,
                        6.9115,
                        6.9429,
                        6.9743,
                        7.0058,
                        7.0372,
                        7.0686,
                        7.1,
                        7.1314,
                        7.1628,
                        7.1942,
                        7.2257,
                        7.2571,
                        7.2885,
                        7.3199,
                        7.3513,
                        7.3827,
                        7.4142,
                        7.4456,
                        7.477,
                        7.5084,
                        7.5398,
                        7.5712,
                        7.6027,
                        7.6341,
                        7.6655,
                        7.6969,
                        7.7283,
                        7.7597,
                        7.7911,
                        7.8226,
                        7.854,
                        7.8854,
                        7.9168,
                        7.9482,
                        7.9796,
                        8.0111,
                        8.0425,
                        8.0739,
                        8.1053,
                        8.1367,
                        8.1681,
                        8.1996,
                        8.231,
                        8.2624,
                        8.2938,
                        8.3252,
                        8.3566,
                        8.3881,
                        8.4195,
                        8.4509,
                        8.4823,
                        8.5137,
                        8.5451,
                        8.5765,
                        8.608,
                        8.6394,
                        8.6708,
                        8.7022,
                        8.7336,
                        8.765,
                        8.7965,
                        8.8279,
                        8.8593,
                        8.8907,
                        8.9221,
                        8.9535,
                        8.985,
                        9.0164,
                        9.0478,
                        9.0792,
                        9.1106,
                        9.142,
                        9.1735,
                        9.2049,
                        9.2363,
                        9.2677,
                        9.2991,
                        9.3305,
                        9.3619,
                        9.3934,
                        9.4248,
                        9.4562,
                        9.4876,
                        9.519,
                        9.5504,
                        9.5819,
                        9.6133,
                        9.6447,
                        9.6761,
                        9.7075,
                        9.7389,
                        9.7704,
                        9.8018,
                        9.8332,
                        9.8646,
                        9.896,
                        9.9274,
                        9.9588,
                        9.9903,
                        10.0217,
                        10.0531,
                        10.0845,
                        10.1159,
                        10.1473,
                        10.1788,
                        10.2102,
                        10.2416,
                        10.273,
                        10.3044,
                        10.3358,
                        10.3673,
                        10.3987,
                        10.4301,
                        10.4615,
                        10.4929,
                        10.5243,
                        10.5558,
                        10.5872,
                        10.6186,
                        10.65,
                        10.6814,
                        10.7128,
                        10.7442,
                        10.7757,
                        10.8071,
                        10.8385,
                        10.8699,
                        10.9013,
                        10.9327,
                        10.9642,
                        10.9956,
                        11.027,
                        11.0584,
                        11.0898,
                        11.1212,
                        11.1527,
                        11.1841,
                        11.2155,
                        11.2469,
                        11.2783,
                        11.3097,
                        11.3411,
                        11.3726,
                        11.404,
                        11.4354,
                        11.4668,
                        11.4982,
                        11.5296,
                        11.5611,
                        11.5925,
                        11.6239,
                        11.6553,
                        11.6867,
                        11.7181,
                        11.7496,
                        11.781,
                        11.8124,
                        11.8438,
                        11.8752,
                        11.9066,
                        11.9381,
                        11.9695,
                        12.0009,
                        12.0323,
                        12.0637,
                        12.0951,
                        12.1265,
                        12.158,
                        12.1894,
                        12.2208,
                        12.2522,
                        12.2836,
                        12.315,
                        12.3465,
                        12.3779,
                        12.4093,
                        12.4407,
                        12.4721,
                        12.5035,
                        12.535
                    ],
                    "y": [
                        0,
                        0.0314,
                        0.0628,
                        0.0941,
                        0.1253,
                        0.1564,
                        0.1874,
                        0.2181,
                        0.2487,
                        0.279,
                        0.309,
                        0.3387,
                        0.3681,
                        0.3971,
                        0.4258,
                        0.454,
                        0.4818,
                        0.509,
                        0.5358,
                        0.5621,
                        0.5878,
                        0.6129,
                        0.6374,
                        0.6613,
                        0.6845,
                        0.7071,
                        0.729,
                        0.7501,
                        0.7705,
                        0.7902,
                        0.809,
                        0.8271,
                        0.8443,
                        0.8607,
                        0.8763,
                        0.891,
                        0.9048,
                        0.9178,
                        0.9298,
                        0.9409,
                        0.9511,
                        0.9603,
                        0.9686,
                        0.9759,
                        0.9823,
                        0.9877,
                        0.9921,
                        0.9956,
                        0.998,
                        0.9995,
                        1,
                        0.9995,
                        0.998,
                        0.9956,
                        0.9921,
                        0.9877,
                        0.9823,
                        0.9759,
                        0.9686,
                        0.9603,
                        0.9511,
                        0.9409,
                        0.9298,
                        0.9178,
                        0.9048,
                        0.891,
                        0.8763,
                        0.8607,
                        0.8443,
                        0.8271,
                        0.809,
                        0.7902,
                        0.7705,
                        0.7501,
                        0.729,
                        0.7071,
                        0.6845,
                        0.6613,
                        0.6374,
                        0.6129,
                        0.5878,
                        0.5621,
                        0.5358,
                        0.509,
                        0.4818,
                        0.454,
                        0.4258,
                        0.3971,
                        0.3681,
                        0.3387,
                        0.309,
                        0.279,
                        0.2487,
                        0.2181,
                        0.1874,
                        0.1564,
                        0.1253,
                        0.0941,
                        0.0628,
                        0.0314,
                        0,
                        -0.0314,
                        -0.0628,
                        -0.0941,
                        -0.1253,
                        -0.1564,
                        -0.1874,
                        -0.2181,
                        -0.2487,
                        -0.279,
                        -0.309,
                        -0.3387,
                        -0.3681,
                        -0.3971,
                        -0.4258,
                        -0.454,
                        -0.4818,
                        -0.509,
                        -0.5358,
                        -0.5621,
                        -0.5878,
                        -0.6129,
                        -0.6374,
                        -0.6613,
                        -0.6845,
                        -0.7071,
                        -0.729,
                        -0.7501,
                        -0.7705,
                        -0.7902,
                        -0.809,
                        -0.8271,
                        -0.8443,
                        -0.8607,
                        -0.8763,
                        -0.891,
                        -0.9048,
                        -0.9178,
                        -0.9298,
                        -0.9409,
                        -0.9511,
                        -0.9603,
                        -0.9686,
                        -0.9759,
                        -0.9823,
                        -0.9877,
                        -0.9921,
                        -0.9956,
                        -0.998,
                        -0.9995,
                        -1,
                        -0.9995,
                        -0.998,
                        -0.9956,
                        -0.9921,
                        -0.9877,
                        -0.9823,
                        -0.9759,
                        -0.9686,
                        -0.9603,
                        -0.9511,
                        -0.9409,
                        -0.9298,
                        -0.9178,
                        -0.9048,
                        -0.891,
                        -0.8763,
                        -0.8607,
                        -0.8443,
                        -0.8271,
                        -0.809,
                        -0.7902,
                        -0.7705,
                        -0.7501,
                        -0.729,
                        -0.7071,
                        -0.6845,
                        -0.6613,
                        -0.6374,
                        -0.6129,
                        -0.5878,
                        -0.5621,
                        -0.5358,
                        -0.509,
                        -0.4818,
                        -0.454,
                        -0.4258,
                        -0.3971,
                        -0.3681,
                        -0.3387,
                        -0.309,
                        -0.279,
                        -0.2487,
                        -0.2181,
                        -0.1874,
                        -0.1564,
                        -0.1253,
                        -0.0941,
                        -0.0628,
                        -0.0314,
                        0,
                        0.0314,
                        0.0628,
                        0.0941,
                        0.1253,
                        0.1564,
                        0.1874,
                        0.2181,
                        0.2487,
                        0.279,
                        0.309,
                        0.3387,
                        0.3681,
                        0.3971,
                        0.4258,
                        0.454,
                        0.4818,
                        0.509,
                        0.5358,
                        0.5621,
                        0.5878,
                        0.6129,
                        0.6374,
                        0.6613,
                        0.6845,
                        0.7071,
                        0.729,
                        0.7501,
                        0.7705,
                        0.7902,
                        0.809,
                        0.8271,
                        0.8443,
                        0.8607,
                        0.8763,
                        0.891,
                        0.9048,
                        0.9178,
                        0.9298,
                        0.9409,
                        0.9511,
                        0.9603,
                        0.9686,
                        0.9759,
                        0.9823,
                        0.9877,
                        0.9921,
                        0.9956,
                        0.998,
                        0.9995,
                        1,
                        0.9995,
                        0.998,
                        0.9956,
                        0.9921,
                        0.9877,
                        0.9823,
                        0.9759,
                        0.9686,
                        0.9603,
                        0.9511,
                        0.9409,
                        0.9298,
                        0.9178,
                        0.9048,
                        0.891,
                        0.8763,
                        0.8607,
                        0.8443,
                        0.8271,
                        0.809,
                        0.7902,
                        0.7705,
                        0.7501,
                        0.729,
                        0.7071,
                        0.6845,
                        0.6613,
                        0.6374,
                        0.6129,
                        0.5878,
                        0.5621,
                        0.5358,
                        0.509,
                        0.4818,
                        0.454,
                        0.4258,
                        0.3971,
                        0.3681,
                        0.3387,
                        0.309,
                        0.279,
                        0.2487,
                        0.2181,
                        0.1874,
                        0.1564,
                        0.1253,
                        0.0941,
                        0.0628,
                        0.0314,
                        0,
                        -0.0314,
                        -0.0628,
                        -0.0941,
                        -0.1253,
                        -0.1564,
                        -0.1874,
                        -0.2181,
                        -0.2487,
                        -0.279,
                        -0.309,
                        -0.3387,
                        -0.3681,
                        -0.3971,
                        -0.4258,
                        -0.454,
                        -0.4818,
                        -0.509,
                        -0.5358,
                        -0.5621,
                        -0.5878,
                        -0.6129,
                        -0.6374,
                        -0.6613,
                        -0.6845,
                        -0.7071,
                        -0.729,
                        -0.7501,
                        -0.7705,
                        -0.7902,
                        -0.809,
                        -0.8271,
                        -0.8443,
                        -0.8607,
                        -0.8763,
                        -0.891,
                        -0.9048,
                        -0.9178,
                        -0.9298,
                        -0.9409,
                        -0.9511,
                        -0.9603,
                        -0.9686,
                        -0.9759,
                        -0.9823,
                        -0.9877,
                        -0.9921,
                        -0.9956,
                        -0.998,
                        -0.9995,
                        -1,
                        -0.9995,
                        -0.998,
                        -0.9956,
                        -0.9921,
                        -0.9877,
                        -0.9823,
                        -0.9759,
                        -0.9686,
                        -0.9603,
                        -0.9511,
                        -0.9409,
                        -0.9298,
                        -0.9178,
                        -0.9048,
                        -0.891,
                        -0.8763,
                        -0.8607,
                        -0.8443,
                        -0.8271,
                        -0.809,
                        -0.7902,
                        -0.7705,
                        -0.7501,
                        -0.729,
                        -0.7071,
                        -0.6845,
                        -0.6613,
                        -0.6374,
                        -0.6129,
                        -0.5878,
                        -0.5621,
                        -0.5358,
                        -0.509,
                        -0.4818,
                        -0.454,
                        -0.4258,
                        -0.3971,
                        -0.3681,
                        -0.3387,
                        -0.309,
                        -0.279,
                        -0.2487,
                        -0.2181,
                        -0.1874,
                        -0.1564,
                        -0.1253,
                        -0.0941,
                        -0.0628,
                        -0.0314
                    ]
                }
            ],
            "layout": {
                "xaxis": {
                    "title": "t (seconds)"
                },
                "yaxis": {
                    "title": "x(t)",
                    "range": [
                        -1.3,
                        1.3
                    ]
                },
                "showlegend": true,
                "annotations": [
                    {
                        "x": 3.14,
                        "y": -1.15,
                        "text": "← T₀ →",
                        "showarrow": false,
                        "font": {
                            "size": 12,
                            "color": "#f5a623"
                        }
                    }
                ]
            }
        },
        {
            "id": "signal-generator-explore",
            "type": "v3-waveform",
            "title": "Interactive: Explore Periodic Signals",
            "description": "Adjust the frequency and amplitude to see how periodic signals change. Watch how increasing ω₀ shortens the period T₀."
        },
        {
            "id": "periodic-signal-composite",
            "type": "plotly",
            "title": "Composite Periodic Signal: x(t) = 11 + 4sin(5t) + (4/3)sin(15t)",
            "description": "This signal looks complex, but it is built from just three components: a DC offset (11), a fundamental sinusoid at ω₀ = 5, and a third harmonic at 3ω₀ = 15. The fundamental period is T₀ = 2π/5.",
            "traces": [
                {
                    "mode": "lines",
                    "name": "x(t)",
                    "line": {
                        "color": "#4f8cff",
                        "width": 2.5
                    },
                    "x": [
                        0,
                        0.0251,
                        0.0503,
                        0.0754,
                        0.1005,
                        0.1257,
                        0.1508,
                        0.1759,
                        0.2011,
                        0.2262,
                        0.2513,
                        0.2765,
                        0.3016,
                        0.3267,
                        0.3519,
                        0.377,
                        0.4021,
                        0.4273,
                        0.4524,
                        0.4775,
                        0.5027,
                        0.5278,
                        0.5529,
                        0.5781,
                        0.6032,
                        0.6283,
                        0.6535,
                        0.6786,
                        0.7037,
                        0.7288,
                        0.754,
                        0.7791,
                        0.8042,
                        0.8294,
                        0.8545,
                        0.8796,
                        0.9048,
                        0.9299,
                        0.955,
                        0.9802,
                        1.0053,
                        1.0304,
                        1.0556,
                        1.0807,
                        1.1058,
                        1.131,
                        1.1561,
                        1.1812,
                        1.2064,
                        1.2315,
                        1.2566,
                        1.2818,
                        1.3069,
                        1.332,
                        1.3572,
                        1.3823,
                        1.4074,
                        1.4326,
                        1.4577,
                        1.4828,
                        1.508,
                        1.5331,
                        1.5582,
                        1.5834,
                        1.6085,
                        1.6336,
                        1.6588,
                        1.6839,
                        1.709,
                        1.7342,
                        1.7593,
                        1.7844,
                        1.8096,
                        1.8347,
                        1.8598,
                        1.885,
                        1.9101,
                        1.9352,
                        1.9604,
                        1.9855,
                        2.0106,
                        2.0358,
                        2.0609,
                        2.086,
                        2.1112,
                        2.1363,
                        2.1614,
                        2.1865,
                        2.2117,
                        2.2368,
                        2.2619,
                        2.2871,
                        2.3122,
                        2.3373,
                        2.3625,
                        2.3876,
                        2.4127,
                        2.4379,
                        2.463,
                        2.4881,
                        2.5133,
                        2.5384,
                        2.5635,
                        2.5887,
                        2.6138,
                        2.6389,
                        2.6641,
                        2.6892,
                        2.7143,
                        2.7395,
                        2.7646,
                        2.7897,
                        2.8149,
                        2.84,
                        2.8651,
                        2.8903,
                        2.9154,
                        2.9405,
                        2.9657,
                        2.9908,
                        3.0159,
                        3.0411,
                        3.0662,
                        3.0913,
                        3.1165,
                        3.1416,
                        3.1667,
                        3.1919,
                        3.217,
                        3.2421,
                        3.2673,
                        3.2924,
                        3.3175,
                        3.3427,
                        3.3678,
                        3.3929,
                        3.4181,
                        3.4432,
                        3.4683,
                        3.4935,
                        3.5186,
                        3.5437,
                        3.5688,
                        3.594,
                        3.6191,
                        3.6442,
                        3.6694,
                        3.6945,
                        3.7196,
                        3.7448,
                        3.7699,
                        3.795,
                        3.8202,
                        3.8453,
                        3.8704,
                        3.8956,
                        3.9207,
                        3.9458,
                        3.971,
                        3.9961,
                        4.0212,
                        4.0464,
                        4.0715,
                        4.0966,
                        4.1218,
                        4.1469,
                        4.172,
                        4.1972,
                        4.2223,
                        4.2474,
                        4.2726,
                        4.2977,
                        4.3228,
                        4.348,
                        4.3731,
                        4.3982,
                        4.4234,
                        4.4485,
                        4.4736,
                        4.4988,
                        4.5239,
                        4.549,
                        4.5742,
                        4.5993,
                        4.6244,
                        4.6496,
                        4.6747,
                        4.6998,
                        4.725,
                        4.7501,
                        4.7752,
                        4.8004,
                        4.8255,
                        4.8506,
                        4.8758,
                        4.9009,
                        4.926,
                        4.9512,
                        4.9763,
                        5.0014,
                        5.0265,
                        5.0517,
                        5.0768,
                        5.1019,
                        5.1271,
                        5.1522,
                        5.1773,
                        5.2025,
                        5.2276,
                        5.2527,
                        5.2779,
                        5.303,
                        5.3281,
                        5.3533,
                        5.3784,
                        5.4035,
                        5.4287,
                        5.4538,
                        5.4789,
                        5.5041,
                        5.5292,
                        5.5543,
                        5.5795,
                        5.6046,
                        5.6297,
                        5.6549,
                        5.68,
                        5.7051,
                        5.7303,
                        5.7554,
                        5.7805,
                        5.8057,
                        5.8308,
                        5.8559,
                        5.8811,
                        5.9062,
                        5.9313,
                        5.9565,
                        5.9816,
                        6.0067,
                        6.0319,
                        6.057,
                        6.0821,
                        6.1073,
                        6.1324,
                        6.1575,
                        6.1827,
                        6.2078,
                        6.2329,
                        6.2581,
                        6.2832,
                        6.3083,
                        6.3335,
                        6.3586,
                        6.3837,
                        6.4088,
                        6.434,
                        6.4591,
                        6.4842,
                        6.5094,
                        6.5345,
                        6.5596,
                        6.5848,
                        6.6099,
                        6.635,
                        6.6602,
                        6.6853,
                        6.7104,
                        6.7356,
                        6.7607,
                        6.7858,
                        6.811,
                        6.8361,
                        6.8612,
                        6.8864,
                        6.9115,
                        6.9366,
                        6.9618,
                        6.9869,
                        7.012,
                        7.0372,
                        7.0623,
                        7.0874,
                        7.1126,
                        7.1377,
                        7.1628,
                        7.188,
                        7.2131,
                        7.2382,
                        7.2634,
                        7.2885,
                        7.3136,
                        7.3388,
                        7.3639,
                        7.389,
                        7.4142,
                        7.4393,
                        7.4644,
                        7.4896,
                        7.5147,
                        7.5398,
                        7.565,
                        7.5901,
                        7.6152,
                        7.6404,
                        7.6655,
                        7.6906,
                        7.7158,
                        7.7409,
                        7.766,
                        7.7911,
                        7.8163,
                        7.8414,
                        7.8665,
                        7.8917,
                        7.9168,
                        7.9419,
                        7.9671,
                        7.9922,
                        8.0173,
                        8.0425,
                        8.0676,
                        8.0927,
                        8.1179,
                        8.143,
                        8.1681,
                        8.1933,
                        8.2184,
                        8.2435,
                        8.2687,
                        8.2938,
                        8.3189,
                        8.3441,
                        8.3692,
                        8.3943,
                        8.4195,
                        8.4446,
                        8.4697,
                        8.4949,
                        8.52,
                        8.5451,
                        8.5703,
                        8.5954,
                        8.6205,
                        8.6457,
                        8.6708,
                        8.6959,
                        8.7211,
                        8.7462,
                        8.7713,
                        8.7965,
                        8.8216,
                        8.8467,
                        8.8719,
                        8.897,
                        8.9221,
                        8.9473,
                        8.9724,
                        8.9975,
                        9.0227,
                        9.0478,
                        9.0729,
                        9.0981,
                        9.1232,
                        9.1483,
                        9.1735,
                        9.1986,
                        9.2237,
                        9.2488,
                        9.274,
                        9.2991,
                        9.3242,
                        9.3494,
                        9.3745,
                        9.3996,
                        9.4248,
                        9.4499,
                        9.475,
                        9.5002,
                        9.5253,
                        9.5504,
                        9.5756,
                        9.6007,
                        9.6258,
                        9.651,
                        9.6761,
                        9.7012,
                        9.7264,
                        9.7515,
                        9.7766,
                        9.8018,
                        9.8269,
                        9.852,
                        9.8772,
                        9.9023,
                        9.9274,
                        9.9526,
                        9.9777,
                        10.0028,
                        10.028,
                        10.0531,
                        10.0782,
                        10.1034,
                        10.1285,
                        10.1536,
                        10.1788,
                        10.2039,
                        10.229,
                        10.2542,
                        10.2793,
                        10.3044,
                        10.3296,
                        10.3547,
                        10.3798,
                        10.405,
                        10.4301,
                        10.4552,
                        10.4804,
                        10.5055,
                        10.5306,
                        10.5558,
                        10.5809,
                        10.606,
                        10.6311,
                        10.6563,
                        10.6814,
                        10.7065,
                        10.7317,
                        10.7568,
                        10.7819,
                        10.8071,
                        10.8322,
                        10.8573,
                        10.8825,
                        10.9076,
                        10.9327,
                        10.9579,
                        10.983,
                        11.0081,
                        11.0333,
                        11.0584,
                        11.0835,
                        11.1087,
                        11.1338,
                        11.1589,
                        11.1841,
                        11.2092,
                        11.2343,
                        11.2595,
                        11.2846,
                        11.3097,
                        11.3349,
                        11.36,
                        11.3851,
                        11.4103,
                        11.4354,
                        11.4605,
                        11.4857,
                        11.5108,
                        11.5359,
                        11.5611,
                        11.5862,
                        11.6113,
                        11.6365,
                        11.6616,
                        11.6867,
                        11.7119,
                        11.737,
                        11.7621,
                        11.7873,
                        11.8124,
                        11.8375,
                        11.8627,
                        11.8878,
                        11.9129,
                        11.9381,
                        11.9632,
                        11.9883,
                        12.0135,
                        12.0386,
                        12.0637,
                        12.0888,
                        12.114,
                        12.1391,
                        12.1642,
                        12.1894,
                        12.2145,
                        12.2396,
                        12.2648,
                        12.2899,
                        12.315,
                        12.3402,
                        12.3653,
                        12.3904,
                        12.4156,
                        12.4407,
                        12.4658,
                        12.491,
                        12.5161,
                        12.5412
                    ],
                    "y": [
                        11,
                        11.9922,
                        12.9075,
                        13.6789,
                        14.2577,
                        14.6192,
                        14.7655,
                        14.7244,
                        14.5444,
                        14.2877,
                        14.0205,
                        13.8034,
                        13.6824,
                        13.6824,
                        13.8034,
                        14.0205,
                        14.2877,
                        14.5444,
                        14.7244,
                        14.7655,
                        14.6192,
                        14.2577,
                        13.6789,
                        12.9075,
                        11.9922,
                        11,
                        10.0078,
                        9.0925,
                        8.3211,
                        7.7423,
                        7.3808,
                        7.2345,
                        7.2756,
                        7.4556,
                        7.7123,
                        7.9795,
                        8.1966,
                        8.3176,
                        8.3176,
                        8.1966,
                        7.9795,
                        7.7123,
                        7.4556,
                        7.2756,
                        7.2345,
                        7.3808,
                        7.7423,
                        8.3211,
                        9.0925,
                        10.0078,
                        11,
                        11.9922,
                        12.9075,
                        13.6789,
                        14.2577,
                        14.6192,
                        14.7655,
                        14.7244,
                        14.5444,
                        14.2877,
                        14.0205,
                        13.8034,
                        13.6824,
                        13.6824,
                        13.8034,
                        14.0205,
                        14.2877,
                        14.5444,
                        14.7244,
                        14.7655,
                        14.6192,
                        14.2577,
                        13.6789,
                        12.9075,
                        11.9922,
                        11,
                        10.0078,
                        9.0925,
                        8.3211,
                        7.7423,
                        7.3808,
                        7.2345,
                        7.2756,
                        7.4556,
                        7.7123,
                        7.9795,
                        8.1966,
                        8.3176,
                        8.3176,
                        8.1966,
                        7.9795,
                        7.7123,
                        7.4556,
                        7.2756,
                        7.2345,
                        7.3808,
                        7.7423,
                        8.3211,
                        9.0925,
                        10.0078,
                        11,
                        11.9922,
                        12.9075,
                        13.6789,
                        14.2577,
                        14.6192,
                        14.7655,
                        14.7244,
                        14.5444,
                        14.2877,
                        14.0205,
                        13.8034,
                        13.6824,
                        13.6824,
                        13.8034,
                        14.0205,
                        14.2877,
                        14.5444,
                        14.7244,
                        14.7655,
                        14.6192,
                        14.2577,
                        13.6789,
                        12.9075,
                        11.9922,
                        11,
                        10.0078,
                        9.0925,
                        8.3211,
                        7.7423,
                        7.3808,
                        7.2345,
                        7.2756,
                        7.4556,
                        7.7123,
                        7.9795,
                        8.1966,
                        8.3176,
                        8.3176,
                        8.1966,
                        7.9795,
                        7.7123,
                        7.4556,
                        7.2756,
                        7.2345,
                        7.3808,
                        7.7423,
                        8.3211,
                        9.0925,
                        10.0078,
                        11,
                        11.9922,
                        12.9075,
                        13.6789,
                        14.2577,
                        14.6192,
                        14.7655,
                        14.7244,
                        14.5444,
                        14.2877,
                        14.0205,
                        13.8034,
                        13.6824,
                        13.6824,
                        13.8034,
                        14.0205,
                        14.2877,
                        14.5444,
                        14.7244,
                        14.7655,
                        14.6192,
                        14.2577,
                        13.6789,
                        12.9075,
                        11.9922,
                        11,
                        10.0078,
                        9.0925,
                        8.3211,
                        7.7423,
                        7.3808,
                        7.2345,
                        7.2756,
                        7.4556,
                        7.7123,
                        7.9795,
                        8.1966,
                        8.3176,
                        8.3176,
                        8.1966,
                        7.9795,
                        7.7123,
                        7.4556,
                        7.2756,
                        7.2345,
                        7.3808,
                        7.7423,
                        8.3211,
                        9.0925,
                        10.0078,
                        11,
                        11.9922,
                        12.9075,
                        13.6789,
                        14.2577,
                        14.6192,
                        14.7655,
                        14.7244,
                        14.5444,
                        14.2877,
                        14.0205,
                        13.8034,
                        13.6824,
                        13.6824,
                        13.8034,
                        14.0205,
                        14.2877,
                        14.5444,
                        14.7244,
                        14.7655,
                        14.6192,
                        14.2577,
                        13.6789,
                        12.9075,
                        11.9922,
                        11,
                        10.0078,
                        9.0925,
                        8.3211,
                        7.7423,
                        7.3808,
                        7.2345,
                        7.2756,
                        7.4556,
                        7.7123,
                        7.9795,
                        8.1966,
                        8.3176,
                        8.3176,
                        8.1966,
                        7.9795,
                        7.7123,
                        7.4556,
                        7.2756,
                        7.2345,
                        7.3808,
                        7.7423,
                        8.3211,
                        9.0925,
                        10.0078,
                        11,
                        11.9922,
                        12.9075,
                        13.6789,
                        14.2577,
                        14.6192,
                        14.7655,
                        14.7244,
                        14.5444,
                        14.2877,
                        14.0205,
                        13.8034,
                        13.6824,
                        13.6824,
                        13.8034,
                        14.0205,
                        14.2877,
                        14.5444,
                        14.7244,
                        14.7655,
                        14.6192,
                        14.2577,
                        13.6789,
                        12.9075,
                        11.9922,
                        11,
                        10.0078,
                        9.0925,
                        8.3211,
                        7.7423,
                        7.3808,
                        7.2345,
                        7.2756,
                        7.4556,
                        7.7123,
                        7.9795,
                        8.1966,
                        8.3176,
                        8.3176,
                        8.1966,
                        7.9795,
                        7.7123,
                        7.4556,
                        7.2756,
                        7.2345,
                        7.3808,
                        7.7423,
                        8.3211,
                        9.0925,
                        10.0078,
                        11,
                        11.9922,
                        12.9075,
                        13.6789,
                        14.2577,
                        14.6192,
                        14.7655,
                        14.7244,
                        14.5444,
                        14.2877,
                        14.0205,
                        13.8034,
                        13.6824,
                        13.6824,
                        13.8034,
                        14.0205,
                        14.2877,
                        14.5444,
                        14.7244,
                        14.7655,
                        14.6192,
                        14.2577,
                        13.6789,
                        12.9075,
                        11.9922,
                        11,
                        10.0078,
                        9.0925,
                        8.3211,
                        7.7423,
                        7.3808,
                        7.2345,
                        7.2756,
                        7.4556,
                        7.7123,
                        7.9795,
                        8.1966,
                        8.3176,
                        8.3176,
                        8.1966,
                        7.9795,
                        7.7123,
                        7.4556,
                        7.2756,
                        7.2345,
                        7.3808,
                        7.7423,
                        8.3211,
                        9.0925,
                        10.0078,
                        11,
                        11.9922,
                        12.9075,
                        13.6789,
                        14.2577,
                        14.6192,
                        14.7655,
                        14.7244,
                        14.5444,
                        14.2877,
                        14.0205,
                        13.8034,
                        13.6824,
                        13.6824,
                        13.8034,
                        14.0205,
                        14.2877,
                        14.5444,
                        14.7244,
                        14.7655,
                        14.6192,
                        14.2577,
                        13.6789,
                        12.9075,
                        11.9922,
                        11,
                        10.0078,
                        9.0925,
                        8.3211,
                        7.7423,
                        7.3808,
                        7.2345,
                        7.2756,
                        7.4556,
                        7.7123,
                        7.9795,
                        8.1966,
                        8.3176,
                        8.3176,
                        8.1966,
                        7.9795,
                        7.7123,
                        7.4556,
                        7.2756,
                        7.2345,
                        7.3808,
                        7.7423,
                        8.3211,
                        9.0925,
                        10.0078,
                        11,
                        11.9922,
                        12.9075,
                        13.6789,
                        14.2577,
                        14.6192,
                        14.7655,
                        14.7244,
                        14.5444,
                        14.2877,
                        14.0205,
                        13.8034,
                        13.6824,
                        13.6824,
                        13.8034,
                        14.0205,
                        14.2877,
                        14.5444,
                        14.7244,
                        14.7655,
                        14.6192,
                        14.2577,
                        13.6789,
                        12.9075,
                        11.9922,
                        11,
                        10.0078,
                        9.0925,
                        8.3211,
                        7.7423,
                        7.3808,
                        7.2345,
                        7.2756,
                        7.4556,
                        7.7123,
                        7.9795,
                        8.1966,
                        8.3176,
                        8.3176,
                        8.1966,
                        7.9795,
                        7.7123,
                        7.4556,
                        7.2756,
                        7.2345,
                        7.3808,
                        7.7423,
                        8.3211,
                        9.0925,
                        10.0078,
                        11,
                        11.9922,
                        12.9075,
                        13.6789,
                        14.2577,
                        14.6192,
                        14.7655,
                        14.7244,
                        14.5444,
                        14.2877,
                        14.0205,
                        13.8034,
                        13.6824,
                        13.6824,
                        13.8034,
                        14.0205,
                        14.2877,
                        14.5444,
                        14.7244,
                        14.7655,
                        14.6192,
                        14.2577,
                        13.6789,
                        12.9075,
                        11.9922,
                        11,
                        10.0078,
                        9.0925,
                        8.3211,
                        7.7423,
                        7.3808,
                        7.2345,
                        7.2756,
                        7.4556,
                        7.7123,
                        7.9795,
                        8.1966,
                        8.3176,
                        8.3176,
                        8.1966,
                        7.9795,
                        7.7123,
                        7.4556,
                        7.2756,
                        7.2345,
                        7.3808,
                        7.7423,
                        8.3211,
                        9.0925,
                        10.0078
                    ]
                },
                {
                    "mode": "lines",
                    "name": "DC = 11",
                    "line": {
                        "color": "#ff6b8a",
                        "width": 1.5,
                        "dash": "dash"
                    },
                    "x": [
                        0,
                        12.5664
                    ],
                    "y": [
                        11,
                        11
                    ]
                }
            ],
            "layout": {
                "xaxis": {
                    "title": "t (seconds)"
                },
                "yaxis": {
                    "title": "x(t)"
                },
                "showlegend": true
            }
        },
        {
            "id": "period-frequency-explorer",
            "type": "v3-waveform",
            "title": "Interactive: Period ↔ Frequency Relationship",
            "description": "Drag the slider to change frequency. Watch the period update in real time. This builds intuition for the inverse relationship T₀ = 1/f₀."
        },
        {
            "id": "euler-unit-circle",
            "type": "plotly",
            "title": "Euler's Formula: e^{jθ} on the Unit Circle",
            "description": "The complex exponential e^{jθ} traces the unit circle. The horizontal projection gives cos(θ) and the vertical projection gives sin(θ).",
            "traces": [
                {
                    "mode": "lines",
                    "name": "e^{jθ}",
                    "line": {
                        "color": "#6b62ff",
                        "width": 2
                    },
                    "x": [
                        1,
                        0.998,
                        0.9921,
                        0.9823,
                        0.9686,
                        0.9511,
                        0.9298,
                        0.9048,
                        0.8763,
                        0.8443,
                        0.809,
                        0.7705,
                        0.729,
                        0.6845,
                        0.6374,
                        0.5878,
                        0.5358,
                        0.4818,
                        0.4258,
                        0.3681,
                        0.309,
                        0.2487,
                        0.1874,
                        0.1253,
                        0.0628,
                        0,
                        -0.0628,
                        -0.1253,
                        -0.1874,
                        -0.2487,
                        -0.309,
                        -0.3681,
                        -0.4258,
                        -0.4818,
                        -0.5358,
                        -0.5878,
                        -0.6374,
                        -0.6845,
                        -0.729,
                        -0.7705,
                        -0.809,
                        -0.8443,
                        -0.8763,
                        -0.9048,
                        -0.9298,
                        -0.9511,
                        -0.9686,
                        -0.9823,
                        -0.9921,
                        -0.998,
                        -1,
                        -0.998,
                        -0.9921,
                        -0.9823,
                        -0.9686,
                        -0.9511,
                        -0.9298,
                        -0.9048,
                        -0.8763,
                        -0.8443,
                        -0.809,
                        -0.7705,
                        -0.729,
                        -0.6845,
                        -0.6374,
                        -0.5878,
                        -0.5358,
                        -0.4818,
                        -0.4258,
                        -0.3681,
                        -0.309,
                        -0.2487,
                        -0.1874,
                        -0.1253,
                        -0.0628,
                        0,
                        0.0628,
                        0.1253,
                        0.1874,
                        0.2487,
                        0.309,
                        0.3681,
                        0.4258,
                        0.4818,
                        0.5358,
                        0.5878,
                        0.6374,
                        0.6845,
                        0.729,
                        0.7705,
                        0.809,
                        0.8443,
                        0.8763,
                        0.9048,
                        0.9298,
                        0.9511,
                        0.9686,
                        0.9823,
                        0.9921,
                        0.998
                    ],
                    "y": [
                        0,
                        0.0628,
                        0.1253,
                        0.1874,
                        0.2487,
                        0.309,
                        0.3681,
                        0.4258,
                        0.4818,
                        0.5358,
                        0.5878,
                        0.6374,
                        0.6845,
                        0.729,
                        0.7705,
                        0.809,
                        0.8443,
                        0.8763,
                        0.9048,
                        0.9298,
                        0.9511,
                        0.9686,
                        0.9823,
                        0.9921,
                        0.998,
                        1,
                        0.998,
                        0.9921,
                        0.9823,
                        0.9686,
                        0.9511,
                        0.9298,
                        0.9048,
                        0.8763,
                        0.8443,
                        0.809,
                        0.7705,
                        0.729,
                        0.6845,
                        0.6374,
                        0.5878,
                        0.5358,
                        0.4818,
                        0.4258,
                        0.3681,
                        0.309,
                        0.2487,
                        0.1874,
                        0.1253,
                        0.0628,
                        0,
                        -0.0628,
                        -0.1253,
                        -0.1874,
                        -0.2487,
                        -0.309,
                        -0.3681,
                        -0.4258,
                        -0.4818,
                        -0.5358,
                        -0.5878,
                        -0.6374,
                        -0.6845,
                        -0.729,
                        -0.7705,
                        -0.809,
                        -0.8443,
                        -0.8763,
                        -0.9048,
                        -0.9298,
                        -0.9511,
                        -0.9686,
                        -0.9823,
                        -0.9921,
                        -0.998,
                        -1,
                        -0.998,
                        -0.9921,
                        -0.9823,
                        -0.9686,
                        -0.9511,
                        -0.9298,
                        -0.9048,
                        -0.8763,
                        -0.8443,
                        -0.809,
                        -0.7705,
                        -0.729,
                        -0.6845,
                        -0.6374,
                        -0.5878,
                        -0.5358,
                        -0.4818,
                        -0.4258,
                        -0.3681,
                        -0.309,
                        -0.2487,
                        -0.1874,
                        -0.1253,
                        -0.0628
                    ]
                },
                {
                    "x": [
                        1,
                        0.707
                    ],
                    "y": [
                        0,
                        0.707
                    ],
                    "mode": "markers+text",
                    "name": "θ = 0, π/4",
                    "text": [
                        "(1,0)",
                        "(cos π/4, sin π/4)"
                    ],
                    "textposition": "top right",
                    "marker": {
                        "size": 8,
                        "color": "#ff6b8a"
                    }
                }
            ],
            "layout": {
                "xaxis": {
                    "title": "Re",
                    "scaleanchor": "y",
                    "range": [
                        -1.3,
                        1.3
                    ]
                },
                "yaxis": {
                    "title": "Im",
                    "range": [
                        -1.3,
                        1.3
                    ]
                },
                "showlegend": true
            },
            "width": 420,
            "height": 420
        },
        {
            "id": "inter-domain-block-diagram",
            "type": "plotly",
            "title": "Inter-Domain Analysis: Time ↔ Frequency",
            "description": "The same signal x(t) has two equivalent representations. Analysis extracts X_k from x(t); synthesis reconstructs x(t) from X_k. No information is lost.",
            "traces": [
                {
                    "x": [
                        "Time Domain\nx(t)",
                        "→ Analysis →\nExtract X_k",
                        "Frequency Domain\n{X_k}",
                        "→ Synthesis →\nReconstruct x(t)"
                    ],
                    "y": [
                        1,
                        1,
                        1,
                        1
                    ],
                    "type": "bar",
                    "marker": {
                        "color": [
                            "#4f8cff",
                            "#f5a623",
                            "#ff6b8a",
                            "#f5a623"
                        ]
                    },
                    "text": [
                        "Waveform\n(time view)",
                        "X_k = (1/T₀)∫\nx(t)e^{−jkω₀t}dt",
                        "Coefficients\n(freq view)",
                        "x(t) = Σ\nX_k e^{jkω₀t}"
                    ],
                    "textposition": "inside",
                    "textfont": {
                        "size": 9,
                        "color": "#ffffff"
                    },
                    "showlegend": false,
                    "hoverinfo": "none"
                }
            ],
            "layout": {
                "xaxis": {
                    "title": ""
                },
                "yaxis": {
                    "visible": false,
                    "range": [
                        0,
                        1.3
                    ]
                },
                "showlegend": false
            },
            "height": 300
        },
        {
            "id": "magnitude-spectrum-bar",
            "type": "plotly",
            "title": "Magnitude Spectrum |X_k|",
            "description": "The magnitude spectrum shows how much energy each harmonic carries. X₀ = 11 is the DC, |X₁| = 2 is the fundamental, and |X₃| = 2/3 is the third harmonic.",
            "traces": [
                {
                    "x": [
                        -3,
                        -2,
                        -1,
                        0,
                        1,
                        2,
                        3
                    ],
                    "y": [
                        0.667,
                        0,
                        2,
                        11,
                        2,
                        0,
                        0.667
                    ],
                    "type": "bar",
                    "name": "|X_k|",
                    "marker": {
                        "color": "#4f8cff"
                    }
                }
            ],
            "layout": {
                "xaxis": {
                    "title": "Harmonic k",
                    "dtick": 1
                },
                "yaxis": {
                    "title": "|X_k|"
                },
                "showlegend": false
            }
        },
        {
            "id": "phase-spectrum-bar",
            "type": "plotly",
            "title": "Phase Spectrum ∠X_k",
            "description": "The phase spectrum shows the phase angle of each coefficient. For real signals, the phase is anti-symmetric: ∠X_{−k} = −∠X_k.",
            "traces": [
                {
                    "x": [
                        -3,
                        -2,
                        -1,
                        0,
                        1,
                        2,
                        3
                    ],
                    "y": [
                        1.5708,
                        0,
                        1.5708,
                        0,
                        -1.5708,
                        0,
                        -1.5708
                    ],
                    "type": "bar",
                    "name": "∠X_k",
                    "marker": {
                        "color": "#ff6b8a"
                    }
                }
            ],
            "layout": {
                "xaxis": {
                    "title": "Harmonic k",
                    "dtick": 1
                },
                "yaxis": {
                    "title": "∠X_k (rad)"
                },
                "showlegend": false
            }
        },
        {
            "id": "harmonic-builder-demo",
            "type": "v3-waveform",
            "title": "Interactive: Build a Signal from Harmonics",
            "description": "Add harmonics one by one and watch the signal take shape. Start with DC, add the fundamental, then higher harmonics. This is Fourier synthesis in action."
        },
        {
            "id": "fourier-coefficients-explore",
            "type": "v3-waveform",
            "title": "Interactive: Fourier Coefficient Visualization",
            "description": "Explore how changing the signal shape affects the Fourier coefficients. See the magnitude and phase spectra update in real time as you modify the waveform."
        }
    ]
}