{
    "visuals": [
        {
            "id": "ideal-voltage-transfer",
            "type": "plotly",
            "title": "Ideal Voltage Amplifier Transfer",
            "description": "Linear relationship V_out = A_V × V_in with no saturation or distortion.",
            "traces": [
                {
                    "x": [
                        -1,
                        -0.9798,
                        -0.9596,
                        -0.9394,
                        -0.9192,
                        -0.899,
                        -0.8788,
                        -0.8586,
                        -0.8384,
                        -0.8182,
                        -0.798,
                        -0.7778,
                        -0.7576,
                        -0.7374,
                        -0.7172,
                        -0.697,
                        -0.6768,
                        -0.6566,
                        -0.6364,
                        -0.6162,
                        -0.596,
                        -0.5758,
                        -0.5556,
                        -0.5354,
                        -0.5152,
                        -0.4949,
                        -0.4747,
                        -0.4545,
                        -0.4343,
                        -0.4141,
                        -0.3939,
                        -0.3737,
                        -0.3535,
                        -0.3333,
                        -0.3131,
                        -0.2929,
                        -0.2727,
                        -0.2525,
                        -0.2323,
                        -0.2121,
                        -0.1919,
                        -0.1717,
                        -0.1515,
                        -0.1313,
                        -0.1111,
                        -0.0909,
                        -0.0707,
                        -0.0505,
                        -0.0303,
                        -0.0101,
                        0.0101,
                        0.0303,
                        0.0505,
                        0.0707,
                        0.0909,
                        0.1111,
                        0.1313,
                        0.1515,
                        0.1717,
                        0.1919,
                        0.2121,
                        0.2323,
                        0.2525,
                        0.2727,
                        0.2929,
                        0.3131,
                        0.3333,
                        0.3535,
                        0.3737,
                        0.3939,
                        0.4141,
                        0.4343,
                        0.4545,
                        0.4747,
                        0.4949,
                        0.5152,
                        0.5354,
                        0.5556,
                        0.5758,
                        0.596,
                        0.6162,
                        0.6364,
                        0.6566,
                        0.6768,
                        0.697,
                        0.7172,
                        0.7374,
                        0.7576,
                        0.7778,
                        0.798,
                        0.8182,
                        0.8384,
                        0.8586,
                        0.8788,
                        0.899,
                        0.9192,
                        0.9394,
                        0.9596,
                        0.9798,
                        1
                    ],
                    "y": [
                        -10,
                        -9.8,
                        -9.6,
                        -9.39,
                        -9.19,
                        -8.99,
                        -8.79,
                        -8.59,
                        -8.38,
                        -8.18,
                        -7.98,
                        -7.78,
                        -7.58,
                        -7.37,
                        -7.17,
                        -6.97,
                        -6.77,
                        -6.57,
                        -6.36,
                        -6.16,
                        -5.96,
                        -5.76,
                        -5.56,
                        -5.35,
                        -5.15,
                        -4.95,
                        -4.75,
                        -4.54,
                        -4.34,
                        -4.14,
                        -3.94,
                        -3.74,
                        -3.53,
                        -3.33,
                        -3.13,
                        -2.93,
                        -2.73,
                        -2.52,
                        -2.32,
                        -2.12,
                        -1.92,
                        -1.72,
                        -1.51,
                        -1.31,
                        -1.11,
                        -0.91,
                        -0.71,
                        -0.5,
                        -0.3,
                        -0.1,
                        0.1,
                        0.3,
                        0.51,
                        0.71,
                        0.91,
                        1.11,
                        1.31,
                        1.52,
                        1.72,
                        1.92,
                        2.12,
                        2.32,
                        2.53,
                        2.73,
                        2.93,
                        3.13,
                        3.33,
                        3.53,
                        3.74,
                        3.94,
                        4.14,
                        4.34,
                        4.55,
                        4.75,
                        4.95,
                        5.15,
                        5.35,
                        5.56,
                        5.76,
                        5.96,
                        6.16,
                        6.36,
                        6.57,
                        6.77,
                        6.97,
                        7.17,
                        7.37,
                        7.58,
                        7.78,
                        7.98,
                        8.18,
                        8.38,
                        8.59,
                        8.79,
                        8.99,
                        9.19,
                        9.39,
                        9.6,
                        9.8,
                        10
                    ],
                    "mode": "lines",
                    "name": "A_V = 10",
                    "line": {
                        "color": "#4f8cff",
                        "width": 2.5
                    }
                }
            ],
            "layout": {
                "xaxis": {
                    "title": "V_in (V)"
                },
                "yaxis": {
                    "title": "V_out (V)"
                },
                "showlegend": false
            }
        },
        {
            "id": "practical-saturation",
            "type": "plotly",
            "title": "Practical Amplifier: Saturation Limits",
            "description": "Real amplifiers clip at ±V_CC. The linear region is bounded by the supply rails.",
            "traces": [
                {
                    "x": [
                        -2,
                        -1.9799,
                        -1.9598,
                        -1.9397,
                        -1.9196,
                        -1.8995,
                        -1.8794,
                        -1.8593,
                        -1.8392,
                        -1.8191,
                        -1.799,
                        -1.7789,
                        -1.7588,
                        -1.7387,
                        -1.7186,
                        -1.6985,
                        -1.6784,
                        -1.6583,
                        -1.6382,
                        -1.6181,
                        -1.598,
                        -1.5779,
                        -1.5578,
                        -1.5377,
                        -1.5176,
                        -1.4975,
                        -1.4774,
                        -1.4573,
                        -1.4372,
                        -1.4171,
                        -1.397,
                        -1.3769,
                        -1.3568,
                        -1.3367,
                        -1.3166,
                        -1.2965,
                        -1.2764,
                        -1.2563,
                        -1.2362,
                        -1.2161,
                        -1.196,
                        -1.1759,
                        -1.1558,
                        -1.1357,
                        -1.1156,
                        -1.0955,
                        -1.0754,
                        -1.0553,
                        -1.0352,
                        -1.0151,
                        -0.995,
                        -0.9749,
                        -0.9548,
                        -0.9347,
                        -0.9146,
                        -0.8945,
                        -0.8744,
                        -0.8543,
                        -0.8342,
                        -0.8141,
                        -0.794,
                        -0.7739,
                        -0.7538,
                        -0.7337,
                        -0.7136,
                        -0.6935,
                        -0.6734,
                        -0.6533,
                        -0.6332,
                        -0.6131,
                        -0.593,
                        -0.5729,
                        -0.5528,
                        -0.5327,
                        -0.5126,
                        -0.4925,
                        -0.4724,
                        -0.4523,
                        -0.4322,
                        -0.4121,
                        -0.392,
                        -0.3719,
                        -0.3518,
                        -0.3317,
                        -0.3116,
                        -0.2915,
                        -0.2714,
                        -0.2513,
                        -0.2312,
                        -0.2111,
                        -0.191,
                        -0.1709,
                        -0.1508,
                        -0.1307,
                        -0.1106,
                        -0.0905,
                        -0.0704,
                        -0.0503,
                        -0.0302,
                        -0.0101,
                        0.0101,
                        0.0302,
                        0.0503,
                        0.0704,
                        0.0905,
                        0.1106,
                        0.1307,
                        0.1508,
                        0.1709,
                        0.191,
                        0.2111,
                        0.2312,
                        0.2513,
                        0.2714,
                        0.2915,
                        0.3116,
                        0.3317,
                        0.3518,
                        0.3719,
                        0.392,
                        0.4121,
                        0.4322,
                        0.4523,
                        0.4724,
                        0.4925,
                        0.5126,
                        0.5327,
                        0.5528,
                        0.5729,
                        0.593,
                        0.6131,
                        0.6332,
                        0.6533,
                        0.6734,
                        0.6935,
                        0.7136,
                        0.7337,
                        0.7538,
                        0.7739,
                        0.794,
                        0.8141,
                        0.8342,
                        0.8543,
                        0.8744,
                        0.8945,
                        0.9146,
                        0.9347,
                        0.9548,
                        0.9749,
                        0.995,
                        1.0151,
                        1.0352,
                        1.0553,
                        1.0754,
                        1.0955,
                        1.1156,
                        1.1357,
                        1.1558,
                        1.1759,
                        1.196,
                        1.2161,
                        1.2362,
                        1.2563,
                        1.2764,
                        1.2965,
                        1.3166,
                        1.3367,
                        1.3568,
                        1.3769,
                        1.397,
                        1.4171,
                        1.4372,
                        1.4573,
                        1.4774,
                        1.4975,
                        1.5176,
                        1.5377,
                        1.5578,
                        1.5779,
                        1.598,
                        1.6181,
                        1.6382,
                        1.6583,
                        1.6784,
                        1.6985,
                        1.7186,
                        1.7387,
                        1.7588,
                        1.7789,
                        1.799,
                        1.8191,
                        1.8392,
                        1.8593,
                        1.8794,
                        1.8995,
                        1.9196,
                        1.9397,
                        1.9598,
                        1.9799,
                        2
                    ],
                    "y": [
                        -12,
                        -12,
                        -12,
                        -12,
                        -12,
                        -12,
                        -12,
                        -12,
                        -12,
                        -12,
                        -12,
                        -12,
                        -12,
                        -12,
                        -12,
                        -12,
                        -12,
                        -12,
                        -12,
                        -12,
                        -12,
                        -12,
                        -12,
                        -12,
                        -12,
                        -12,
                        -12,
                        -12,
                        -12,
                        -12,
                        -12,
                        -12,
                        -12,
                        -12,
                        -12,
                        -12,
                        -12,
                        -12,
                        -12,
                        -12,
                        -11.96,
                        -11.76,
                        -11.56,
                        -11.36,
                        -11.16,
                        -10.95,
                        -10.75,
                        -10.55,
                        -10.35,
                        -10.15,
                        -9.95,
                        -9.75,
                        -9.55,
                        -9.35,
                        -9.15,
                        -8.94,
                        -8.74,
                        -8.54,
                        -8.34,
                        -8.14,
                        -7.94,
                        -7.74,
                        -7.54,
                        -7.34,
                        -7.14,
                        -6.93,
                        -6.73,
                        -6.53,
                        -6.33,
                        -6.13,
                        -5.93,
                        -5.73,
                        -5.53,
                        -5.33,
                        -5.13,
                        -4.92,
                        -4.72,
                        -4.52,
                        -4.32,
                        -4.12,
                        -3.92,
                        -3.72,
                        -3.52,
                        -3.32,
                        -3.12,
                        -2.91,
                        -2.71,
                        -2.51,
                        -2.31,
                        -2.11,
                        -1.91,
                        -1.71,
                        -1.51,
                        -1.31,
                        -1.11,
                        -0.9,
                        -0.7,
                        -0.5,
                        -0.3,
                        -0.1,
                        0.1,
                        0.3,
                        0.5,
                        0.7,
                        0.91,
                        1.11,
                        1.31,
                        1.51,
                        1.71,
                        1.91,
                        2.11,
                        2.31,
                        2.51,
                        2.71,
                        2.92,
                        3.12,
                        3.32,
                        3.52,
                        3.72,
                        3.92,
                        4.12,
                        4.32,
                        4.52,
                        4.72,
                        4.93,
                        5.13,
                        5.33,
                        5.53,
                        5.73,
                        5.93,
                        6.13,
                        6.33,
                        6.53,
                        6.73,
                        6.94,
                        7.14,
                        7.34,
                        7.54,
                        7.74,
                        7.94,
                        8.14,
                        8.34,
                        8.54,
                        8.74,
                        8.95,
                        9.15,
                        9.35,
                        9.55,
                        9.75,
                        9.95,
                        10.15,
                        10.35,
                        10.55,
                        10.75,
                        10.95,
                        11.16,
                        11.36,
                        11.56,
                        11.76,
                        11.96,
                        12,
                        12,
                        12,
                        12,
                        12,
                        12,
                        12,
                        12,
                        12,
                        12,
                        12,
                        12,
                        12,
                        12,
                        12,
                        12,
                        12,
                        12,
                        12,
                        12,
                        12,
                        12,
                        12,
                        12,
                        12,
                        12,
                        12,
                        12,
                        12,
                        12,
                        12,
                        12,
                        12,
                        12,
                        12,
                        12,
                        12,
                        12,
                        12,
                        12
                    ],
                    "mode": "lines",
                    "name": "With saturation",
                    "line": {
                        "color": "#ff6b8a",
                        "width": 2.5
                    }
                },
                {
                    "x": [
                        -2,
                        -1.9799,
                        -1.9598,
                        -1.9397,
                        -1.9196,
                        -1.8995,
                        -1.8794,
                        -1.8593,
                        -1.8392,
                        -1.8191,
                        -1.799,
                        -1.7789,
                        -1.7588,
                        -1.7387,
                        -1.7186,
                        -1.6985,
                        -1.6784,
                        -1.6583,
                        -1.6382,
                        -1.6181,
                        -1.598,
                        -1.5779,
                        -1.5578,
                        -1.5377,
                        -1.5176,
                        -1.4975,
                        -1.4774,
                        -1.4573,
                        -1.4372,
                        -1.4171,
                        -1.397,
                        -1.3769,
                        -1.3568,
                        -1.3367,
                        -1.3166,
                        -1.2965,
                        -1.2764,
                        -1.2563,
                        -1.2362,
                        -1.2161,
                        -1.196,
                        -1.1759,
                        -1.1558,
                        -1.1357,
                        -1.1156,
                        -1.0955,
                        -1.0754,
                        -1.0553,
                        -1.0352,
                        -1.0151,
                        -0.995,
                        -0.9749,
                        -0.9548,
                        -0.9347,
                        -0.9146,
                        -0.8945,
                        -0.8744,
                        -0.8543,
                        -0.8342,
                        -0.8141,
                        -0.794,
                        -0.7739,
                        -0.7538,
                        -0.7337,
                        -0.7136,
                        -0.6935,
                        -0.6734,
                        -0.6533,
                        -0.6332,
                        -0.6131,
                        -0.593,
                        -0.5729,
                        -0.5528,
                        -0.5327,
                        -0.5126,
                        -0.4925,
                        -0.4724,
                        -0.4523,
                        -0.4322,
                        -0.4121,
                        -0.392,
                        -0.3719,
                        -0.3518,
                        -0.3317,
                        -0.3116,
                        -0.2915,
                        -0.2714,
                        -0.2513,
                        -0.2312,
                        -0.2111,
                        -0.191,
                        -0.1709,
                        -0.1508,
                        -0.1307,
                        -0.1106,
                        -0.0905,
                        -0.0704,
                        -0.0503,
                        -0.0302,
                        -0.0101,
                        0.0101,
                        0.0302,
                        0.0503,
                        0.0704,
                        0.0905,
                        0.1106,
                        0.1307,
                        0.1508,
                        0.1709,
                        0.191,
                        0.2111,
                        0.2312,
                        0.2513,
                        0.2714,
                        0.2915,
                        0.3116,
                        0.3317,
                        0.3518,
                        0.3719,
                        0.392,
                        0.4121,
                        0.4322,
                        0.4523,
                        0.4724,
                        0.4925,
                        0.5126,
                        0.5327,
                        0.5528,
                        0.5729,
                        0.593,
                        0.6131,
                        0.6332,
                        0.6533,
                        0.6734,
                        0.6935,
                        0.7136,
                        0.7337,
                        0.7538,
                        0.7739,
                        0.794,
                        0.8141,
                        0.8342,
                        0.8543,
                        0.8744,
                        0.8945,
                        0.9146,
                        0.9347,
                        0.9548,
                        0.9749,
                        0.995,
                        1.0151,
                        1.0352,
                        1.0553,
                        1.0754,
                        1.0955,
                        1.1156,
                        1.1357,
                        1.1558,
                        1.1759,
                        1.196,
                        1.2161,
                        1.2362,
                        1.2563,
                        1.2764,
                        1.2965,
                        1.3166,
                        1.3367,
                        1.3568,
                        1.3769,
                        1.397,
                        1.4171,
                        1.4372,
                        1.4573,
                        1.4774,
                        1.4975,
                        1.5176,
                        1.5377,
                        1.5578,
                        1.5779,
                        1.598,
                        1.6181,
                        1.6382,
                        1.6583,
                        1.6784,
                        1.6985,
                        1.7186,
                        1.7387,
                        1.7588,
                        1.7789,
                        1.799,
                        1.8191,
                        1.8392,
                        1.8593,
                        1.8794,
                        1.8995,
                        1.9196,
                        1.9397,
                        1.9598,
                        1.9799,
                        2
                    ],
                    "y": [
                        -20,
                        -19.8,
                        -19.6,
                        -19.4,
                        -19.2,
                        -18.99,
                        -18.79,
                        -18.59,
                        -18.39,
                        -18.19,
                        -17.99,
                        -17.79,
                        -17.59,
                        -17.39,
                        -17.19,
                        -16.98,
                        -16.78,
                        -16.58,
                        -16.38,
                        -16.18,
                        -15.98,
                        -15.78,
                        -15.58,
                        -15.38,
                        -15.18,
                        -14.98,
                        -14.77,
                        -14.57,
                        -14.37,
                        -14.17,
                        -13.97,
                        -13.77,
                        -13.57,
                        -13.37,
                        -13.17,
                        -12.96,
                        -12.76,
                        -12.56,
                        -12.36,
                        -12.16,
                        -11.96,
                        -11.76,
                        -11.56,
                        -11.36,
                        -11.16,
                        -10.95,
                        -10.75,
                        -10.55,
                        -10.35,
                        -10.15,
                        -9.95,
                        -9.75,
                        -9.55,
                        -9.35,
                        -9.15,
                        -8.94,
                        -8.74,
                        -8.54,
                        -8.34,
                        -8.14,
                        -7.94,
                        -7.74,
                        -7.54,
                        -7.34,
                        -7.14,
                        -6.93,
                        -6.73,
                        -6.53,
                        -6.33,
                        -6.13,
                        -5.93,
                        -5.73,
                        -5.53,
                        -5.33,
                        -5.13,
                        -4.92,
                        -4.72,
                        -4.52,
                        -4.32,
                        -4.12,
                        -3.92,
                        -3.72,
                        -3.52,
                        -3.32,
                        -3.12,
                        -2.91,
                        -2.71,
                        -2.51,
                        -2.31,
                        -2.11,
                        -1.91,
                        -1.71,
                        -1.51,
                        -1.31,
                        -1.11,
                        -0.9,
                        -0.7,
                        -0.5,
                        -0.3,
                        -0.1,
                        0.1,
                        0.3,
                        0.5,
                        0.7,
                        0.91,
                        1.11,
                        1.31,
                        1.51,
                        1.71,
                        1.91,
                        2.11,
                        2.31,
                        2.51,
                        2.71,
                        2.92,
                        3.12,
                        3.32,
                        3.52,
                        3.72,
                        3.92,
                        4.12,
                        4.32,
                        4.52,
                        4.72,
                        4.93,
                        5.13,
                        5.33,
                        5.53,
                        5.73,
                        5.93,
                        6.13,
                        6.33,
                        6.53,
                        6.73,
                        6.94,
                        7.14,
                        7.34,
                        7.54,
                        7.74,
                        7.94,
                        8.14,
                        8.34,
                        8.54,
                        8.74,
                        8.95,
                        9.15,
                        9.35,
                        9.55,
                        9.75,
                        9.95,
                        10.15,
                        10.35,
                        10.55,
                        10.75,
                        10.95,
                        11.16,
                        11.36,
                        11.56,
                        11.76,
                        11.96,
                        12.16,
                        12.36,
                        12.56,
                        12.76,
                        12.97,
                        13.17,
                        13.37,
                        13.57,
                        13.77,
                        13.97,
                        14.17,
                        14.37,
                        14.57,
                        14.77,
                        14.98,
                        15.18,
                        15.38,
                        15.58,
                        15.78,
                        15.98,
                        16.18,
                        16.38,
                        16.58,
                        16.78,
                        16.99,
                        17.19,
                        17.39,
                        17.59,
                        17.79,
                        17.99,
                        18.19,
                        18.39,
                        18.59,
                        18.79,
                        19,
                        19.2,
                        19.4,
                        19.6,
                        19.8,
                        20
                    ],
                    "mode": "lines",
                    "name": "Ideal",
                    "line": {
                        "color": "#4f8cff",
                        "width": 1.5,
                        "dash": "dash"
                    }
                }
            ],
            "layout": {
                "xaxis": {
                    "title": "V_in (V)"
                },
                "yaxis": {
                    "title": "V_out (V)"
                },
                "showlegend": true
            }
        },
        {
            "id": "rin-vs-signal-loss",
            "type": "plotly",
            "title": "Input Signal Loss vs R_in/R_S Ratio",
            "description": "As R_in/R_S → ∞, the input voltage divider loss → 0. Need R_in >> R_S for voltage amps.",
            "traces": [
                {
                    "x": [
                        0.1,
                        0.602,
                        1.104,
                        1.606,
                        2.108,
                        2.6101,
                        3.1121,
                        3.6141,
                        4.1161,
                        4.6181,
                        5.1201,
                        5.6221,
                        6.1241,
                        6.6261,
                        7.1281,
                        7.6302,
                        8.1322,
                        8.6342,
                        9.1362,
                        9.6382,
                        10.1402,
                        10.6422,
                        11.1442,
                        11.6462,
                        12.1482,
                        12.6503,
                        13.1523,
                        13.6543,
                        14.1563,
                        14.6583,
                        15.1603,
                        15.6623,
                        16.1643,
                        16.6663,
                        17.1683,
                        17.6704,
                        18.1724,
                        18.6744,
                        19.1764,
                        19.6784,
                        20.1804,
                        20.6824,
                        21.1844,
                        21.6864,
                        22.1884,
                        22.6905,
                        23.1925,
                        23.6945,
                        24.1965,
                        24.6985,
                        25.2005,
                        25.7025,
                        26.2045,
                        26.7065,
                        27.2085,
                        27.7106,
                        28.2126,
                        28.7146,
                        29.2166,
                        29.7186,
                        30.2206,
                        30.7226,
                        31.2246,
                        31.7266,
                        32.2286,
                        32.7307,
                        33.2327,
                        33.7347,
                        34.2367,
                        34.7387,
                        35.2407,
                        35.7427,
                        36.2447,
                        36.7467,
                        37.2487,
                        37.7508,
                        38.2528,
                        38.7548,
                        39.2568,
                        39.7588,
                        40.2608,
                        40.7628,
                        41.2648,
                        41.7668,
                        42.2688,
                        42.7709,
                        43.2729,
                        43.7749,
                        44.2769,
                        44.7789,
                        45.2809,
                        45.7829,
                        46.2849,
                        46.7869,
                        47.2889,
                        47.791,
                        48.293,
                        48.795,
                        49.297,
                        49.799,
                        50.301,
                        50.803,
                        51.305,
                        51.807,
                        52.309,
                        52.8111,
                        53.3131,
                        53.8151,
                        54.3171,
                        54.8191,
                        55.3211,
                        55.8231,
                        56.3251,
                        56.8271,
                        57.3291,
                        57.8312,
                        58.3332,
                        58.8352,
                        59.3372,
                        59.8392,
                        60.3412,
                        60.8432,
                        61.3452,
                        61.8472,
                        62.3492,
                        62.8513,
                        63.3533,
                        63.8553,
                        64.3573,
                        64.8593,
                        65.3613,
                        65.8633,
                        66.3653,
                        66.8673,
                        67.3693,
                        67.8714,
                        68.3734,
                        68.8754,
                        69.3774,
                        69.8794,
                        70.3814,
                        70.8834,
                        71.3854,
                        71.8874,
                        72.3894,
                        72.8915,
                        73.3935,
                        73.8955,
                        74.3975,
                        74.8995,
                        75.4015,
                        75.9035,
                        76.4055,
                        76.9075,
                        77.4095,
                        77.9116,
                        78.4136,
                        78.9156,
                        79.4176,
                        79.9196,
                        80.4216,
                        80.9236,
                        81.4256,
                        81.9276,
                        82.4296,
                        82.9317,
                        83.4337,
                        83.9357,
                        84.4377,
                        84.9397,
                        85.4417,
                        85.9437,
                        86.4457,
                        86.9477,
                        87.4497,
                        87.9518,
                        88.4538,
                        88.9558,
                        89.4578,
                        89.9598,
                        90.4618,
                        90.9638,
                        91.4658,
                        91.9678,
                        92.4698,
                        92.9719,
                        93.4739,
                        93.9759,
                        94.4779,
                        94.9799,
                        95.4819,
                        95.9839,
                        96.4859,
                        96.9879,
                        97.4899,
                        97.992,
                        98.494,
                        98.996,
                        99.498,
                        100
                    ],
                    "y": [
                        0.0909,
                        0.3758,
                        0.5247,
                        0.6163,
                        0.6782,
                        0.723,
                        0.7568,
                        0.7833,
                        0.8045,
                        0.822,
                        0.8366,
                        0.849,
                        0.8596,
                        0.8689,
                        0.877,
                        0.8841,
                        0.8905,
                        0.8962,
                        0.9013,
                        0.906,
                        0.9102,
                        0.9141,
                        0.9177,
                        0.9209,
                        0.9239,
                        0.9267,
                        0.9293,
                        0.9318,
                        0.934,
                        0.9361,
                        0.9381,
                        0.94,
                        0.9417,
                        0.9434,
                        0.945,
                        0.9464,
                        0.9478,
                        0.9492,
                        0.9504,
                        0.9516,
                        0.9528,
                        0.9539,
                        0.9549,
                        0.9559,
                        0.9569,
                        0.9578,
                        0.9587,
                        0.9595,
                        0.9603,
                        0.9611,
                        0.9618,
                        0.9626,
                        0.9632,
                        0.9639,
                        0.9645,
                        0.9652,
                        0.9658,
                        0.9663,
                        0.9669,
                        0.9674,
                        0.968,
                        0.9685,
                        0.969,
                        0.9694,
                        0.9699,
                        0.9704,
                        0.9708,
                        0.9712,
                        0.9716,
                        0.972,
                        0.9724,
                        0.9728,
                        0.9732,
                        0.9735,
                        0.9739,
                        0.9742,
                        0.9745,
                        0.9748,
                        0.9752,
                        0.9755,
                        0.9758,
                        0.9761,
                        0.9763,
                        0.9766,
                        0.9769,
                        0.9772,
                        0.9774,
                        0.9777,
                        0.9779,
                        0.9782,
                        0.9784,
                        0.9786,
                        0.9789,
                        0.9791,
                        0.9793,
                        0.9795,
                        0.9797,
                        0.9799,
                        0.9801,
                        0.9803,
                        0.9805,
                        0.9807,
                        0.9809,
                        0.9811,
                        0.9812,
                        0.9814,
                        0.9816,
                        0.9818,
                        0.9819,
                        0.9821,
                        0.9822,
                        0.9824,
                        0.9826,
                        0.9827,
                        0.9829,
                        0.983,
                        0.9831,
                        0.9833,
                        0.9834,
                        0.9836,
                        0.9837,
                        0.9838,
                        0.984,
                        0.9841,
                        0.9842,
                        0.9843,
                        0.9845,
                        0.9846,
                        0.9847,
                        0.9848,
                        0.9849,
                        0.985,
                        0.9852,
                        0.9853,
                        0.9854,
                        0.9855,
                        0.9856,
                        0.9857,
                        0.9858,
                        0.9859,
                        0.986,
                        0.9861,
                        0.9862,
                        0.9863,
                        0.9864,
                        0.9865,
                        0.9866,
                        0.9866,
                        0.9867,
                        0.9868,
                        0.9869,
                        0.987,
                        0.9871,
                        0.9872,
                        0.9872,
                        0.9873,
                        0.9874,
                        0.9875,
                        0.9876,
                        0.9876,
                        0.9877,
                        0.9878,
                        0.9879,
                        0.9879,
                        0.988,
                        0.9881,
                        0.9882,
                        0.9882,
                        0.9883,
                        0.9884,
                        0.9884,
                        0.9885,
                        0.9886,
                        0.9886,
                        0.9887,
                        0.9888,
                        0.9888,
                        0.9889,
                        0.9889,
                        0.989,
                        0.9891,
                        0.9891,
                        0.9892,
                        0.9892,
                        0.9893,
                        0.9894,
                        0.9894,
                        0.9895,
                        0.9895,
                        0.9896,
                        0.9896,
                        0.9897,
                        0.9897,
                        0.9898,
                        0.9898,
                        0.9899,
                        0.9899,
                        0.99,
                        0.99,
                        0.9901
                    ],
                    "mode": "lines",
                    "name": "V_in/V_S",
                    "line": {
                        "color": "#2fbf8f",
                        "width": 2.5
                    }
                }
            ],
            "layout": {
                "xaxis": {
                    "title": "R_in / R_S",
                    "type": "log"
                },
                "yaxis": {
                    "title": "V_in / V_S",
                    "range": [
                        0,
                        1.05
                    ]
                },
                "showlegend": false
            }
        },
        {
            "id": "rout-vs-output-loss",
            "type": "plotly",
            "title": "Output Loss vs R_out/R_L Ratio",
            "description": "For voltage amps: as R_out/R_L → 0, output loss → 0. Smaller R_out is better.",
            "traces": [
                {
                    "x": [
                        0.001,
                        0.0512,
                        0.1015,
                        0.1517,
                        0.202,
                        0.2522,
                        0.3025,
                        0.3527,
                        0.403,
                        0.4532,
                        0.5035,
                        0.5537,
                        0.604,
                        0.6542,
                        0.7044,
                        0.7547,
                        0.8049,
                        0.8552,
                        0.9054,
                        0.9557,
                        1.0059,
                        1.0562,
                        1.1064,
                        1.1567,
                        1.2069,
                        1.2572,
                        1.3074,
                        1.3576,
                        1.4079,
                        1.4581,
                        1.5084,
                        1.5586,
                        1.6089,
                        1.6591,
                        1.7094,
                        1.7596,
                        1.8099,
                        1.8601,
                        1.9104,
                        1.9606,
                        2.0108,
                        2.0611,
                        2.1113,
                        2.1616,
                        2.2118,
                        2.2621,
                        2.3123,
                        2.3626,
                        2.4128,
                        2.4631,
                        2.5133,
                        2.5636,
                        2.6138,
                        2.6641,
                        2.7143,
                        2.7645,
                        2.8148,
                        2.865,
                        2.9153,
                        2.9655,
                        3.0158,
                        3.066,
                        3.1163,
                        3.1665,
                        3.2168,
                        3.267,
                        3.3173,
                        3.3675,
                        3.4177,
                        3.468,
                        3.5182,
                        3.5685,
                        3.6187,
                        3.669,
                        3.7192,
                        3.7695,
                        3.8197,
                        3.87,
                        3.9202,
                        3.9705,
                        4.0207,
                        4.0709,
                        4.1212,
                        4.1714,
                        4.2217,
                        4.2719,
                        4.3222,
                        4.3724,
                        4.4227,
                        4.4729,
                        4.5232,
                        4.5734,
                        4.6237,
                        4.6739,
                        4.7241,
                        4.7744,
                        4.8246,
                        4.8749,
                        4.9251,
                        4.9754,
                        5.0256,
                        5.0759,
                        5.1261,
                        5.1764,
                        5.2266,
                        5.2769,
                        5.3271,
                        5.3773,
                        5.4276,
                        5.4778,
                        5.5281,
                        5.5783,
                        5.6286,
                        5.6788,
                        5.7291,
                        5.7793,
                        5.8296,
                        5.8798,
                        5.9301,
                        5.9803,
                        6.0305,
                        6.0808,
                        6.131,
                        6.1813,
                        6.2315,
                        6.2818,
                        6.332,
                        6.3823,
                        6.4325,
                        6.4828,
                        6.533,
                        6.5833,
                        6.6335,
                        6.6837,
                        6.734,
                        6.7842,
                        6.8345,
                        6.8847,
                        6.935,
                        6.9852,
                        7.0355,
                        7.0857,
                        7.136,
                        7.1862,
                        7.2365,
                        7.2867,
                        7.3369,
                        7.3872,
                        7.4374,
                        7.4877,
                        7.5379,
                        7.5882,
                        7.6384,
                        7.6887,
                        7.7389,
                        7.7892,
                        7.8394,
                        7.8897,
                        7.9399,
                        7.9902,
                        8.0404,
                        8.0906,
                        8.1409,
                        8.1911,
                        8.2414,
                        8.2916,
                        8.3419,
                        8.3921,
                        8.4424,
                        8.4926,
                        8.5429,
                        8.5931,
                        8.6434,
                        8.6936,
                        8.7438,
                        8.7941,
                        8.8443,
                        8.8946,
                        8.9448,
                        8.9951,
                        9.0453,
                        9.0956,
                        9.1458,
                        9.1961,
                        9.2463,
                        9.2966,
                        9.3468,
                        9.397,
                        9.4473,
                        9.4975,
                        9.5478,
                        9.598,
                        9.6483,
                        9.6985,
                        9.7488,
                        9.799,
                        9.8493,
                        9.8995,
                        9.9498,
                        10
                    ],
                    "y": [
                        0.999,
                        0.9513,
                        0.9079,
                        0.8683,
                        0.8319,
                        0.7986,
                        0.7678,
                        0.7393,
                        0.7128,
                        0.6881,
                        0.6651,
                        0.6436,
                        0.6234,
                        0.6045,
                        0.5867,
                        0.5699,
                        0.554,
                        0.539,
                        0.5248,
                        0.5113,
                        0.4985,
                        0.4863,
                        0.4747,
                        0.4637,
                        0.4531,
                        0.443,
                        0.4334,
                        0.4242,
                        0.4153,
                        0.4068,
                        0.3987,
                        0.3908,
                        0.3833,
                        0.3761,
                        0.3691,
                        0.3624,
                        0.3559,
                        0.3496,
                        0.3436,
                        0.3378,
                        0.3321,
                        0.3267,
                        0.3214,
                        0.3163,
                        0.3114,
                        0.3066,
                        0.3019,
                        0.2974,
                        0.293,
                        0.2888,
                        0.2846,
                        0.2806,
                        0.2767,
                        0.2729,
                        0.2692,
                        0.2656,
                        0.2621,
                        0.2587,
                        0.2554,
                        0.2522,
                        0.249,
                        0.2459,
                        0.2429,
                        0.24,
                        0.2371,
                        0.2344,
                        0.2316,
                        0.229,
                        0.2264,
                        0.2238,
                        0.2213,
                        0.2189,
                        0.2165,
                        0.2142,
                        0.2119,
                        0.2097,
                        0.2075,
                        0.2053,
                        0.2032,
                        0.2012,
                        0.1992,
                        0.1972,
                        0.1953,
                        0.1934,
                        0.1915,
                        0.1897,
                        0.1879,
                        0.1861,
                        0.1844,
                        0.1827,
                        0.1811,
                        0.1794,
                        0.1778,
                        0.1762,
                        0.1747,
                        0.1732,
                        0.1717,
                        0.1702,
                        0.1688,
                        0.1674,
                        0.166,
                        0.1646,
                        0.1632,
                        0.1619,
                        0.1606,
                        0.1593,
                        0.1581,
                        0.1568,
                        0.1556,
                        0.1544,
                        0.1532,
                        0.152,
                        0.1509,
                        0.1497,
                        0.1486,
                        0.1475,
                        0.1464,
                        0.1454,
                        0.1443,
                        0.1433,
                        0.1422,
                        0.1412,
                        0.1402,
                        0.1393,
                        0.1383,
                        0.1373,
                        0.1364,
                        0.1355,
                        0.1345,
                        0.1336,
                        0.1327,
                        0.1319,
                        0.131,
                        0.1301,
                        0.1293,
                        0.1285,
                        0.1276,
                        0.1268,
                        0.126,
                        0.1252,
                        0.1244,
                        0.1237,
                        0.1229,
                        0.1222,
                        0.1214,
                        0.1207,
                        0.1199,
                        0.1192,
                        0.1185,
                        0.1178,
                        0.1171,
                        0.1164,
                        0.1158,
                        0.1151,
                        0.1144,
                        0.1138,
                        0.1131,
                        0.1125,
                        0.1119,
                        0.1112,
                        0.1106,
                        0.11,
                        0.1094,
                        0.1088,
                        0.1082,
                        0.1076,
                        0.107,
                        0.1065,
                        0.1059,
                        0.1053,
                        0.1048,
                        0.1042,
                        0.1037,
                        0.1032,
                        0.1026,
                        0.1021,
                        0.1016,
                        0.1011,
                        0.1006,
                        0.1,
                        0.0995,
                        0.0991,
                        0.0986,
                        0.0981,
                        0.0976,
                        0.0971,
                        0.0966,
                        0.0962,
                        0.0957,
                        0.0953,
                        0.0948,
                        0.0944,
                        0.0939,
                        0.0935,
                        0.093,
                        0.0926,
                        0.0922,
                        0.0917,
                        0.0913,
                        0.0909
                    ],
                    "mode": "lines",
                    "name": "V_out/(A_V·V_in)",
                    "line": {
                        "color": "#f5a623",
                        "width": 2.5
                    }
                }
            ],
            "layout": {
                "xaxis": {
                    "title": "R_out / R_L",
                    "type": "log"
                },
                "yaxis": {
                    "title": "Voltage Transfer Ratio",
                    "range": [
                        0,
                        1.05
                    ]
                },
                "showlegend": false
            }
        },
        {
            "id": "practical-rin-values",
            "type": "plotly",
            "title": "Typical R_in Values by Technology",
            "description": "Op-amps have the highest R_in (10¹² Ω). FETs > BJTs > Power stages.",
            "traces": [
                {
                    "x": [
                        "Power BJT",
                        "Small-sig BJT",
                        "JFET",
                        "MOSFET",
                        "Op-amp"
                    ],
                    "y": [
                        100,
                        5000,
                        1000000,
                        10000000000,
                        1000000000000
                    ],
                    "type": "bar",
                    "marker": {
                        "color": [
                            "#ff6b8a",
                            "#4f8cff",
                            "#2fbf8f",
                            "#6b62ff",
                            "#ec4899"
                        ]
                    }
                }
            ],
            "layout": {
                "xaxis": {
                    "title": "Technology"
                },
                "yaxis": {
                    "title": "R_in (Ω)",
                    "type": "log"
                },
                "showlegend": false
            }
        },
        {
            "id": "practical-rout-values",
            "type": "plotly",
            "title": "Typical R_out Values",
            "description": "Emitter follower has the lowest R_out (~10 Ω). CE has moderate R_out.",
            "traces": [
                {
                    "x": [
                        "Emitter Follower",
                        "Op-amp",
                        "CE Amplifier",
                        "Current Mirror"
                    ],
                    "y": [
                        10,
                        75,
                        50000,
                        1000000
                    ],
                    "type": "bar",
                    "marker": {
                        "color": [
                            "#2fbf8f",
                            "#4f8cff",
                            "#f5a623",
                            "#6b62ff"
                        ]
                    }
                }
            ],
            "layout": {
                "xaxis": {
                    "title": "Circuit"
                },
                "yaxis": {
                    "title": "R_out (Ω)",
                    "type": "log"
                },
                "showlegend": false
            }
        },
        {
            "id": "gain-bandwidth-tradeoff",
            "type": "plotly",
            "title": "Gain-Bandwidth Product Tradeoff",
            "description": "Practical amplifiers trade gain for bandwidth. The gain-bandwidth product (GBP) is approximately constant.",
            "traces": [
                {
                    "x": [
                        1,
                        6.0201,
                        11.0402,
                        16.0603,
                        21.0804,
                        26.1005,
                        31.1206,
                        36.1407,
                        41.1608,
                        46.1809,
                        51.201,
                        56.2211,
                        61.2412,
                        66.2613,
                        71.2814,
                        76.3015,
                        81.3216,
                        86.3417,
                        91.3618,
                        96.3819,
                        101.402,
                        106.4221,
                        111.4422,
                        116.4623,
                        121.4824,
                        126.5025,
                        131.5226,
                        136.5427,
                        141.5628,
                        146.5829,
                        151.603,
                        156.6231,
                        161.6432,
                        166.6633,
                        171.6834,
                        176.7035,
                        181.7236,
                        186.7437,
                        191.7638,
                        196.7839,
                        201.804,
                        206.8241,
                        211.8442,
                        216.8643,
                        221.8844,
                        226.9045,
                        231.9246,
                        236.9447,
                        241.9648,
                        246.9849,
                        252.005,
                        257.0251,
                        262.0452,
                        267.0653,
                        272.0854,
                        277.1055,
                        282.1256,
                        287.1457,
                        292.1658,
                        297.1859,
                        302.206,
                        307.2261,
                        312.2462,
                        317.2663,
                        322.2864,
                        327.3065,
                        332.3266,
                        337.3467,
                        342.3668,
                        347.3869,
                        352.407,
                        357.4271,
                        362.4472,
                        367.4673,
                        372.4874,
                        377.5075,
                        382.5276,
                        387.5477,
                        392.5678,
                        397.5879,
                        402.608,
                        407.6281,
                        412.6482,
                        417.6683,
                        422.6884,
                        427.7085,
                        432.7286,
                        437.7487,
                        442.7688,
                        447.7889,
                        452.809,
                        457.8291,
                        462.8492,
                        467.8693,
                        472.8894,
                        477.9095,
                        482.9296,
                        487.9497,
                        492.9698,
                        497.9899,
                        503.0101,
                        508.0302,
                        513.0503,
                        518.0704,
                        523.0905,
                        528.1106,
                        533.1307,
                        538.1508,
                        543.1709,
                        548.191,
                        553.2111,
                        558.2312,
                        563.2513,
                        568.2714,
                        573.2915,
                        578.3116,
                        583.3317,
                        588.3518,
                        593.3719,
                        598.392,
                        603.4121,
                        608.4322,
                        613.4523,
                        618.4724,
                        623.4925,
                        628.5126,
                        633.5327,
                        638.5528,
                        643.5729,
                        648.593,
                        653.6131,
                        658.6332,
                        663.6533,
                        668.6734,
                        673.6935,
                        678.7136,
                        683.7337,
                        688.7538,
                        693.7739,
                        698.794,
                        703.8141,
                        708.8342,
                        713.8543,
                        718.8744,
                        723.8945,
                        728.9146,
                        733.9347,
                        738.9548,
                        743.9749,
                        748.995,
                        754.0151,
                        759.0352,
                        764.0553,
                        769.0754,
                        774.0955,
                        779.1156,
                        784.1357,
                        789.1558,
                        794.1759,
                        799.196,
                        804.2161,
                        809.2362,
                        814.2563,
                        819.2764,
                        824.2965,
                        829.3166,
                        834.3367,
                        839.3568,
                        844.3769,
                        849.397,
                        854.4171,
                        859.4372,
                        864.4573,
                        869.4774,
                        874.4975,
                        879.5176,
                        884.5377,
                        889.5578,
                        894.5779,
                        899.598,
                        904.6181,
                        909.6382,
                        914.6583,
                        919.6784,
                        924.6985,
                        929.7186,
                        934.7387,
                        939.7588,
                        944.7789,
                        949.799,
                        954.8191,
                        959.8392,
                        964.8593,
                        969.8794,
                        974.8995,
                        979.9196,
                        984.9397,
                        989.9598,
                        994.9799,
                        1000
                    ],
                    "y": [
                        1000000,
                        166110.2,
                        90578.07,
                        62265.34,
                        47437.43,
                        38313.44,
                        32133.06,
                        27669.64,
                        24294.96,
                        21653.97,
                        19530.87,
                        17786.92,
                        16328.88,
                        15091.77,
                        14028.91,
                        13105.9,
                        12296.86,
                        11581.89,
                        10945.49,
                        10375.39,
                        9861.74,
                        9396.54,
                        8973.26,
                        8586.47,
                        8231.65,
                        7904.98,
                        7603.26,
                        7323.72,
                        7064,
                        6822.08,
                        6596.18,
                        6384.75,
                        6186.47,
                        6000.12,
                        5824.67,
                        5659.2,
                        5502.86,
                        5354.93,
                        5214.75,
                        5081.72,
                        4955.3,
                        4835.03,
                        4720.45,
                        4611.18,
                        4506.85,
                        4407.14,
                        4311.75,
                        4220.39,
                        4132.83,
                        4048.83,
                        3968.18,
                        3890.67,
                        3816.14,
                        3744.4,
                        3675.32,
                        3608.73,
                        3544.52,
                        3482.55,
                        3422.71,
                        3364.9,
                        3309,
                        3254.93,
                        3202.6,
                        3151.93,
                        3102.83,
                        3055.24,
                        3009.09,
                        2964.31,
                        2920.84,
                        2878.63,
                        2837.63,
                        2797.77,
                        2759.02,
                        2721.33,
                        2684.65,
                        2648.95,
                        2614.19,
                        2580.33,
                        2547.33,
                        2515.17,
                        2483.81,
                        2453.22,
                        2423.37,
                        2394.24,
                        2365.81,
                        2338.04,
                        2310.92,
                        2284.42,
                        2258.52,
                        2233.2,
                        2208.44,
                        2184.22,
                        2160.53,
                        2137.35,
                        2114.66,
                        2092.45,
                        2070.7,
                        2049.39,
                        2028.52,
                        2008.07,
                        1988.03,
                        1968.39,
                        1949.13,
                        1930.24,
                        1911.72,
                        1893.54,
                        1875.71,
                        1858.22,
                        1841.04,
                        1824.18,
                        1807.63,
                        1791.37,
                        1775.41,
                        1759.72,
                        1744.31,
                        1729.17,
                        1714.29,
                        1699.66,
                        1685.28,
                        1671.15,
                        1657.24,
                        1643.57,
                        1630.12,
                        1616.89,
                        1603.87,
                        1591.06,
                        1578.45,
                        1566.04,
                        1553.83,
                        1541.8,
                        1529.96,
                        1518.3,
                        1506.81,
                        1495.5,
                        1484.35,
                        1473.38,
                        1462.56,
                        1451.9,
                        1441.39,
                        1431.04,
                        1420.83,
                        1410.77,
                        1400.85,
                        1391.06,
                        1381.42,
                        1371.9,
                        1362.52,
                        1353.26,
                        1344.13,
                        1335.12,
                        1326.23,
                        1317.46,
                        1308.81,
                        1300.26,
                        1291.83,
                        1283.51,
                        1275.29,
                        1267.18,
                        1259.17,
                        1251.26,
                        1243.45,
                        1235.73,
                        1228.11,
                        1220.59,
                        1213.16,
                        1205.81,
                        1198.56,
                        1191.39,
                        1184.31,
                        1177.31,
                        1170.39,
                        1163.55,
                        1156.8,
                        1150.12,
                        1143.51,
                        1136.99,
                        1130.53,
                        1124.15,
                        1117.85,
                        1111.61,
                        1105.44,
                        1099.34,
                        1093.3,
                        1087.34,
                        1081.43,
                        1075.59,
                        1069.82,
                        1064.1,
                        1058.45,
                        1052.85,
                        1047.32,
                        1041.84,
                        1036.42,
                        1031.06,
                        1025.75,
                        1020.49,
                        1015.29,
                        1010.14,
                        1005.05,
                        1000
                    ],
                    "mode": "lines",
                    "name": "GBP = 1 MHz",
                    "line": {
                        "color": "#4f8cff",
                        "width": 2.5
                    }
                },
                {
                    "x": [
                        1,
                        6.0201,
                        11.0402,
                        16.0603,
                        21.0804,
                        26.1005,
                        31.1206,
                        36.1407,
                        41.1608,
                        46.1809,
                        51.201,
                        56.2211,
                        61.2412,
                        66.2613,
                        71.2814,
                        76.3015,
                        81.3216,
                        86.3417,
                        91.3618,
                        96.3819,
                        101.402,
                        106.4221,
                        111.4422,
                        116.4623,
                        121.4824,
                        126.5025,
                        131.5226,
                        136.5427,
                        141.5628,
                        146.5829,
                        151.603,
                        156.6231,
                        161.6432,
                        166.6633,
                        171.6834,
                        176.7035,
                        181.7236,
                        186.7437,
                        191.7638,
                        196.7839,
                        201.804,
                        206.8241,
                        211.8442,
                        216.8643,
                        221.8844,
                        226.9045,
                        231.9246,
                        236.9447,
                        241.9648,
                        246.9849,
                        252.005,
                        257.0251,
                        262.0452,
                        267.0653,
                        272.0854,
                        277.1055,
                        282.1256,
                        287.1457,
                        292.1658,
                        297.1859,
                        302.206,
                        307.2261,
                        312.2462,
                        317.2663,
                        322.2864,
                        327.3065,
                        332.3266,
                        337.3467,
                        342.3668,
                        347.3869,
                        352.407,
                        357.4271,
                        362.4472,
                        367.4673,
                        372.4874,
                        377.5075,
                        382.5276,
                        387.5477,
                        392.5678,
                        397.5879,
                        402.608,
                        407.6281,
                        412.6482,
                        417.6683,
                        422.6884,
                        427.7085,
                        432.7286,
                        437.7487,
                        442.7688,
                        447.7889,
                        452.809,
                        457.8291,
                        462.8492,
                        467.8693,
                        472.8894,
                        477.9095,
                        482.9296,
                        487.9497,
                        492.9698,
                        497.9899,
                        503.0101,
                        508.0302,
                        513.0503,
                        518.0704,
                        523.0905,
                        528.1106,
                        533.1307,
                        538.1508,
                        543.1709,
                        548.191,
                        553.2111,
                        558.2312,
                        563.2513,
                        568.2714,
                        573.2915,
                        578.3116,
                        583.3317,
                        588.3518,
                        593.3719,
                        598.392,
                        603.4121,
                        608.4322,
                        613.4523,
                        618.4724,
                        623.4925,
                        628.5126,
                        633.5327,
                        638.5528,
                        643.5729,
                        648.593,
                        653.6131,
                        658.6332,
                        663.6533,
                        668.6734,
                        673.6935,
                        678.7136,
                        683.7337,
                        688.7538,
                        693.7739,
                        698.794,
                        703.8141,
                        708.8342,
                        713.8543,
                        718.8744,
                        723.8945,
                        728.9146,
                        733.9347,
                        738.9548,
                        743.9749,
                        748.995,
                        754.0151,
                        759.0352,
                        764.0553,
                        769.0754,
                        774.0955,
                        779.1156,
                        784.1357,
                        789.1558,
                        794.1759,
                        799.196,
                        804.2161,
                        809.2362,
                        814.2563,
                        819.2764,
                        824.2965,
                        829.3166,
                        834.3367,
                        839.3568,
                        844.3769,
                        849.397,
                        854.4171,
                        859.4372,
                        864.4573,
                        869.4774,
                        874.4975,
                        879.5176,
                        884.5377,
                        889.5578,
                        894.5779,
                        899.598,
                        904.6181,
                        909.6382,
                        914.6583,
                        919.6784,
                        924.6985,
                        929.7186,
                        934.7387,
                        939.7588,
                        944.7789,
                        949.799,
                        954.8191,
                        959.8392,
                        964.8593,
                        969.8794,
                        974.8995,
                        979.9196,
                        984.9397,
                        989.9598,
                        994.9799,
                        1000
                    ],
                    "y": [
                        10000000,
                        1661101.98,
                        905780.69,
                        622653.38,
                        474374.3,
                        383134.42,
                        321330.57,
                        276696.36,
                        242949.6,
                        216539.74,
                        195308.69,
                        177869.16,
                        163288.77,
                        150917.65,
                        140289.05,
                        131059.02,
                        122968.56,
                        115818.89,
                        109454.94,
                        103753.92,
                        98617.38,
                        93965.45,
                        89732.61,
                        85864.7,
                        82316.45,
                        79049.82,
                        76032.56,
                        73237.16,
                        70640.03,
                        68220.78,
                        65961.76,
                        63847.54,
                        61864.65,
                        60001.21,
                        58246.75,
                        56591.97,
                        55028.63,
                        53549.33,
                        52147.49,
                        50817.17,
                        49553.03,
                        48350.26,
                        47204.5,
                        46111.79,
                        45068.51,
                        44071.4,
                        43117.46,
                        42203.94,
                        41328.33,
                        40488.31,
                        39681.75,
                        38906.71,
                        38161.36,
                        37444.03,
                        36753.17,
                        36087.34,
                        35445.21,
                        34825.53,
                        34227.14,
                        33648.97,
                        33090.01,
                        32549.32,
                        32026.01,
                        31519.26,
                        31028.3,
                        30552.4,
                        30090.88,
                        29643.09,
                        29208.44,
                        28786.35,
                        28376.28,
                        27977.73,
                        27590.23,
                        27213.31,
                        26846.55,
                        26489.54,
                        26141.9,
                        25803.28,
                        25473.31,
                        25151.67,
                        24838.06,
                        24532.17,
                        24233.72,
                        23942.44,
                        23658.09,
                        23380.41,
                        23109.17,
                        22844.16,
                        22585.15,
                        22331.95,
                        22084.37,
                        21842.21,
                        21605.31,
                        21373.49,
                        21146.59,
                        20924.46,
                        20706.95,
                        20493.92,
                        20285.22,
                        20080.73,
                        19880.32,
                        19683.87,
                        19491.27,
                        19302.4,
                        19117.15,
                        18935.43,
                        18757.13,
                        18582.15,
                        18410.41,
                        18241.82,
                        18076.28,
                        17913.72,
                        17754.06,
                        17597.23,
                        17443.13,
                        17291.72,
                        17142.91,
                        16996.63,
                        16852.84,
                        16711.45,
                        16572.42,
                        16435.69,
                        16301.19,
                        16168.87,
                        16038.69,
                        15910.58,
                        15784.5,
                        15660.41,
                        15538.26,
                        15417.99,
                        15299.57,
                        15182.96,
                        15068.11,
                        14954.98,
                        14843.55,
                        14733.76,
                        14625.58,
                        14518.98,
                        14413.92,
                        14310.37,
                        14208.3,
                        14107.67,
                        14008.46,
                        13910.64,
                        13814.17,
                        13719.03,
                        13625.19,
                        13532.63,
                        13441.31,
                        13351.22,
                        13262.33,
                        13174.62,
                        13088.06,
                        13002.63,
                        12918.3,
                        12835.07,
                        12752.89,
                        12671.77,
                        12591.67,
                        12512.58,
                        12434.47,
                        12357.33,
                        12281.15,
                        12205.89,
                        12131.56,
                        12058.12,
                        11985.57,
                        11913.88,
                        11843.05,
                        11773.06,
                        11703.89,
                        11635.52,
                        11567.95,
                        11501.16,
                        11435.14,
                        11369.87,
                        11305.34,
                        11241.54,
                        11178.46,
                        11116.08,
                        11054.39,
                        10993.38,
                        10933.04,
                        10873.37,
                        10814.34,
                        10755.94,
                        10698.18,
                        10641.03,
                        10584.49,
                        10528.54,
                        10473.19,
                        10418.41,
                        10364.21,
                        10310.56,
                        10257.47,
                        10204.92,
                        10152.91,
                        10101.42,
                        10050.45,
                        10000
                    ],
                    "mode": "lines",
                    "name": "GBP = 10 MHz",
                    "line": {
                        "color": "#6b62ff",
                        "width": 2,
                        "dash": "dash"
                    }
                }
            ],
            "layout": {
                "xaxis": {
                    "title": "Bandwidth (kHz)",
                    "type": "log"
                },
                "yaxis": {
                    "title": "Gain",
                    "type": "log"
                },
                "showlegend": true
            }
        },
        {
            "id": "distortion-comparison",
            "type": "plotly",
            "title": "Harmonic Distortion: Small vs Large Signal",
            "description": "Small signal operation keeps THD < 1%. Large signal introduces significant distortion.",
            "traces": [
                {
                    "x": [
                        1,
                        2,
                        3,
                        4,
                        5
                    ],
                    "y": [
                        100,
                        0.5,
                        0.1,
                        0.02,
                        0.005
                    ],
                    "type": "bar",
                    "name": "Small signal",
                    "marker": {
                        "color": "#2fbf8f"
                    }
                },
                {
                    "x": [
                        1,
                        2,
                        3,
                        4,
                        5
                    ],
                    "y": [
                        100,
                        15,
                        8,
                        3,
                        1
                    ],
                    "type": "bar",
                    "name": "Large signal",
                    "marker": {
                        "color": "#ff6b8a"
                    }
                }
            ],
            "layout": {
                "xaxis": {
                    "title": "Harmonic Number",
                    "dtick": 1
                },
                "yaxis": {
                    "title": "Relative Amplitude (%)",
                    "type": "log"
                },
                "showlegend": true,
                "barmode": "group"
            }
        },
        {
            "id": "input-output-impedance-map",
            "type": "plotly",
            "title": "Impedance Requirements Map",
            "description": "Each amplifier type has specific R_in and R_out requirements for minimal loading.",
            "traces": [
                {
                    "x": [
                        "Voltage",
                        "Current",
                        "Transcon.",
                        "Transres."
                    ],
                    "y": [
                        1000000,
                        100,
                        1000000,
                        100
                    ],
                    "type": "bar",
                    "name": "R_in",
                    "marker": {
                        "color": "#4f8cff"
                    }
                },
                {
                    "x": [
                        "Voltage",
                        "Current",
                        "Transcon.",
                        "Transres."
                    ],
                    "y": [
                        100,
                        1000000,
                        1000000,
                        100
                    ],
                    "type": "bar",
                    "name": "R_out",
                    "marker": {
                        "color": "#ff6b8a"
                    }
                }
            ],
            "layout": {
                "xaxis": {
                    "title": "Type"
                },
                "yaxis": {
                    "title": "Practical Ω",
                    "type": "log"
                },
                "barmode": "group",
                "showlegend": true
            }
        },
        {
            "id": "efficiency-vs-linearity",
            "type": "plotly",
            "title": "Class A Efficiency vs Signal Swing",
            "description": "Class A amplifiers have max 25% efficiency for resistive load. Efficiency increases with signal swing but distortion increases too.",
            "traces": [
                {
                    "x": [
                        0,
                        0.0101,
                        0.0202,
                        0.0303,
                        0.0404,
                        0.0505,
                        0.0606,
                        0.0707,
                        0.0808,
                        0.0909,
                        0.101,
                        0.1111,
                        0.1212,
                        0.1313,
                        0.1414,
                        0.1515,
                        0.1616,
                        0.1717,
                        0.1818,
                        0.1919,
                        0.202,
                        0.2121,
                        0.2222,
                        0.2323,
                        0.2424,
                        0.2525,
                        0.2626,
                        0.2727,
                        0.2828,
                        0.2929,
                        0.303,
                        0.3131,
                        0.3232,
                        0.3333,
                        0.3434,
                        0.3535,
                        0.3636,
                        0.3737,
                        0.3838,
                        0.3939,
                        0.404,
                        0.4141,
                        0.4242,
                        0.4343,
                        0.4444,
                        0.4545,
                        0.4646,
                        0.4747,
                        0.4848,
                        0.4949,
                        0.5051,
                        0.5152,
                        0.5253,
                        0.5354,
                        0.5455,
                        0.5556,
                        0.5657,
                        0.5758,
                        0.5859,
                        0.596,
                        0.6061,
                        0.6162,
                        0.6263,
                        0.6364,
                        0.6465,
                        0.6566,
                        0.6667,
                        0.6768,
                        0.6869,
                        0.697,
                        0.7071,
                        0.7172,
                        0.7273,
                        0.7374,
                        0.7475,
                        0.7576,
                        0.7677,
                        0.7778,
                        0.7879,
                        0.798,
                        0.8081,
                        0.8182,
                        0.8283,
                        0.8384,
                        0.8485,
                        0.8586,
                        0.8687,
                        0.8788,
                        0.8889,
                        0.899,
                        0.9091,
                        0.9192,
                        0.9293,
                        0.9394,
                        0.9495,
                        0.9596,
                        0.9697,
                        0.9798,
                        0.9899,
                        1
                    ],
                    "y": [
                        0,
                        0,
                        0.01,
                        0.02,
                        0.04,
                        0.06,
                        0.09,
                        0.12,
                        0.16,
                        0.21,
                        0.26,
                        0.31,
                        0.37,
                        0.43,
                        0.5,
                        0.57,
                        0.65,
                        0.74,
                        0.83,
                        0.92,
                        1.02,
                        1.12,
                        1.23,
                        1.35,
                        1.47,
                        1.59,
                        1.72,
                        1.86,
                        2,
                        2.14,
                        2.3,
                        2.45,
                        2.61,
                        2.78,
                        2.95,
                        3.12,
                        3.31,
                        3.49,
                        3.68,
                        3.88,
                        4.08,
                        4.29,
                        4.5,
                        4.72,
                        4.94,
                        5.16,
                        5.4,
                        5.63,
                        5.88,
                        6.12,
                        6.38,
                        6.64,
                        6.9,
                        7.17,
                        7.44,
                        7.72,
                        8,
                        8.29,
                        8.58,
                        8.88,
                        9.18,
                        9.49,
                        9.81,
                        10.13,
                        10.45,
                        10.78,
                        11.11,
                        11.45,
                        11.8,
                        12.15,
                        12.5,
                        12.86,
                        13.22,
                        13.59,
                        13.97,
                        14.35,
                        14.73,
                        15.12,
                        15.52,
                        15.92,
                        16.33,
                        16.74,
                        17.15,
                        17.57,
                        18,
                        18.43,
                        18.87,
                        19.31,
                        19.75,
                        20.21,
                        20.66,
                        21.12,
                        21.59,
                        22.06,
                        22.54,
                        23.02,
                        23.51,
                        24,
                        24.5,
                        25
                    ],
                    "mode": "lines",
                    "name": "η (%)",
                    "line": {
                        "color": "#f5a623",
                        "width": 2.5
                    }
                }
            ],
            "layout": {
                "xaxis": {
                    "title": "Normalized Signal Swing"
                },
                "yaxis": {
                    "title": "Efficiency (%)",
                    "range": [
                        0,
                        30
                    ]
                },
                "showlegend": false
            }
        }
    ]
}